%OpenBCI Raw EEG Data
%
%Sample Rate = 250.0 Hz
%First Column = SampleIndex
%Other Columns = EEG data in microvolts followed by Accel Data (in G) interleaved with Aux Data
0, 0,00, 8923,96, 0,00, 0,00, 0,00, 0,00, 0,00, 0,00, -0,02, 0,01, 0,51
1, 0,00, 8914,43, 0,00, 0,00, 0,00, 0,00, 0,00, 0,00, -0,02, 0,01, 0,51
2, 0,00, 8957,64, 0,00, 0,00, 0,00, 0,00, 0,00, 0,00, -0,04, 0,04, 1,02
3, 0,00, 8974,25, 0,00, 0,00, 0,00, 0,00, 0,00, 0,00, -0,04, 0,04, 1,02
4, 0,00, 8960,72, 0,00, 0,00, 0,00, 0,00, 0,00, 0,00, -0,04, 0,04, 1,02
5, 0,00, 8927,13, 0,00, 0,00, 0,00, 0,00, 0,00, 0,00, -0,04, 0,04, 1,02
6, 0,00, 8926,97, 0,00, 0,00, 0,00, 0,00, 0,00, 0,00, -0,04, 0,04, 1,02
7, 0,00, 8974,29, 0,00, 0,00, 0,00, 0,00, 0,00, 0,00, -0,05, 0,04, 1,02
8, 0,00, 8980,93, 0,00, 0,00, 0,00, 0,00, 0,00, 0,00, -0,05, 0,04, 1,02
9, 0,00, 8954,24, 0,00, 0,00, 0,00, 0,00, 0,00, 0,00, -0,05, 0,04, 1,02
10, 0,00, 8927,24, 0,00, 0,00, 0,00, 0,00, 0,00, 0,00, -0,05, 0,04, 1,02
11, 0,00, 8921,99, 0,00, 0,00, 0,00, 0,00, 0,00, 0,00, -0,05, 0,04, 1,02
12, 0,00, 8965,49, 0,00, 0,00, 0,00, 0,00, 0,00, 0,00, -0,05, 0,04, 1,01
13, 0,00, 8978,61, 0,00, 0,00, 0,00, 0,00, 0,00, 0,00, -0,05, 0,04, 1,01
14, 0,00, 8956,48, 0,00, 0,00, 0,00, 0,00, 0,00, 0,00, -0,05, 0,04, 1,01
15, 0,00, 8921,83, 0,00, 0,00, 0,00, 0,00, 0,00, 0,00, -0,05, 0,04, 1,01
16, 0,00, 8915,19, 0,00, 0,00, 0,00, 0,00, 0,00, 0,00, -0,05, 0,04, 1,01
17, 0,00, 8953,35, 0,00, 0,00, 0,00, 0,00, 0,00, 0,00, -0,04, 0,05, 1,01
18, 0,00, 8972,12, 0,00, 0,00, 0,00, 0,00, 0,00, 0,00, -0,04, 0,05, 1,01
19, 0,00, 8956,01, 0,00, 0,00, 0,00, 0,00, 0,00, 0,00, -0,04, 0,05, 1,01
20, 0,00, 8924,56, 0,00, 0,00, 0,00, 0,00, 0,00, 0,00, -0,04, 0,05, 1,01
21, 0,00, 8921,54, 0,00, 0,00, 0,00, 0,00, 0,00, 0,00, -0,04, 0,05, 1,01
22, 0,00, 8964,93, 0,00, 0,00, 0,00, 0,00, 0,00, 0,00, -0,04, 0,05, 1,02
23, 0,00, 8983,19, 0,00, 0,00, 0,00, 0,00, 0,00, 0,00, -0,04, 0,05, 1,02
24, 0,00, 8968,39, 0,00, 0,00, 0,00, 0,00, 0,00, 0,00, -0,04, 0,05, 1,02
25, 0,00, 8931,06, 0,00, 0,00, 0,00, 0,00, 0,00, 0,00, -0,04, 0,05, 1,02
26, 0,00, 8922,62, 0,00, 0,00, 0,00, 0,00, 0,00, 0,00, -0,04, 0,05, 1,02
27, 0,00, 8964,97, 0,00, 0,00, 0,00, 0,00, 0,00, 0,00, -0,05, 0,05, 1,01
28, 0,00, 8978,02, 0,00, 0,00, 0,00, 0,00, 0,00, 0,00, -0,05, 0,05, 1,01
29, 0,00, 8959,67, 0,00, 0,00, 0,00, 0,00, 0,00, 0,00, -0,05, 0,05, 1,01
30, 0,00, 8920,36, 0,00, 0,00, 0,00, 0,00, 0,00, 0,00, -0,05, 0,05, 1,01
31, 0,00, 8921,83, 0,00, 0,00, 0,00, 0,00, 0,00, 0,00, -0,05, 0,05, 1,01
32, 0,00, 8968,91, 0,00, 0,00, 0,00, 0,00, 0,00, 0,00, -0,05, 0,04, 1,02
33, 0,00, 8980,06, 0,00, 0,00, 0,00, 0,00, 0,00, 0,00, -0,05, 0,04, 1,02
34, 0,00, 8966,60, 0,00, 0,00, 0,00, 0,00, 0,00, 0,00, -0,05, 0,04, 1,02
35, 0,00, 8937,57, 0,00, 0,00, 0,00, 0,00, 0,00, 0,00, -0,05, 0,04, 1,02
36, 0,00, 8930,30, 0,00, 0,00, 0,00, 0,00, 0,00, 0,00, -0,05, 0,04, 1,02
37, 0,00, 8967,45, 0,00, 0,00, 0,00, 0,00, 0,00, 0,00, -0,05, 0,05, 1,02
38, 0,00, 8978,72, 0,00, 0,00, 0,00, 0,00, 0,00, 0,00, -0,05, 0,05, 1,02
39, 0,00, 8960,72, 0,00, 0,00, 0,00, 0,00, 0,00, 0,00, -0,05, 0,05, 1,02
40, 0,00, 8932,32, 0,00, 0,00, 0,00, 0,00, 0,00, 0,00, -0,05, 0,05, 1,02
41, 0,00, 8924,89, 0,00, 0,00, 0,00, 0,00, 0,00, 0,00, -0,05, 0,05, 1,02
42, 0,00, 8961,28, 0,00, 0,00, 0,00, 0,00, 0,00, 0,00, -0,04, 0,05, 1,02
43, 0,00, 8974,63, 0,00, 0,00, 0,00, 0,00, 0,00, 0,00, -0,04, 0,05, 1,02
44, 0,00, 8962,89, 0,00, 0,00, 0,00, 0,00, 0,00, 0,00, -0,04, 0,05, 1,02
45, 0,00, 8934,51, 0,00, 0,00, 0,00, 0,00, 0,00, 0,00, -0,04, 0,05, 1,02
46, 0,00, 8927,24, 0,00, 0,00, 0,00, 0,00, 0,00, 0,00, -0,04, 0,05, 1,02
47, 0,00, 8970,85, 0,00, 0,00, 0,00, 0,00, 0,00, 0,00, -0,04, 0,05, 1,02
48, 0,00, 8988,33, 0,00, 0,00, 0,00, 0,00, 0,00, 0,00, -0,04, 0,05, 1,02
49, 0,00, 8973,73, 0,00, 0,00, 0,00, 0,00, 0,00, 0,00, -0,04, 0,05, 1,02
50, 0,00, 8942,46, 0,00, 0,00, 0,00, 0,00, 0,00, 0,00, -0,04, 0,05, 1,02
51, 0,00, 8930,57, 0,00, 0,00, 0,00, 0,00, 0,00, 0,00, -0,04, 0,05, 1,02
52, 0,00, 8970,89, 0,00, 0,00, 0,00, 0,00, 0,00, 0,00, -0,05, 0,05, 1,02
53, 0,00, 8987,37, 0,00, 0,00, 0,00, 0,00, 0,00, 0,00, -0,05, 0,05, 1,02
54, 0,00, 8972,95, 0,00, 0,00, 0,00, 0,00, 0,00, 0,00, -0,05, 0,05, 1,02
55, 0,00, 8943,29, 0,00, 0,00, 0,00, 0,00, 0,00, 0,00, -0,05, 0,05, 1,02
56, 0,00, 8931,40, 0,00, 0,00, 0,00, 0,00, 0,00, 0,00, -0,05, 0,05, 1,02
57, 0,00, 8968,15, 0,00, 0,00, 0,00, 0,00, 0,00, 0,00, -0,05, 0,06, 1,02
58, 0,00, 8976,53, 0,00, 0,00, 0,00, 0,00, 0,00, 0,00, -0,05, 0,06, 1,02
59, 0,00, 8964,97, 0,00, 0,00, 0,00, 0,00, 0,00, 0,00, -0,05, 0,06, 1,02
60, 0,00, 8936,07, 0,00, 0,00, 0,00, 0,00, 0,00, 0,00, -0,05, 0,06, 1,02
61, 0,00, 8926,48, 0,00, 0,00, 0,00, 0,00, 0,00, 0,00, -0,05, 0,06, 1,02
62, 0,00, 8970,00, 0,00, 0,00, 0,00, 0,00, 0,00, 0,00, -0,05, 0,05, 1,02
63, 0,00, 8987,95, 0,00, 0,00, 0,00, 0,00, 0,00, 0,00, -0,05, 0,05, 1,02
64, 0,00, 8963,83, 0,00, 0,00, 0,00, 0,00, 0,00, 0,00, -0,05, 0,05, 1,02
65, 0,00, 8926,97, 0,00, 0,00, 0,00, 0,00, 0,00, 0,00, -0,05, 0,05, 1,02
66, 0,00, 8926,57, 0,00, 0,00, 0,00, 0,00, 0,00, 0,00, -0,05, 0,05, 1,02
67, 0,00, 8971,79, 0,00, 0,00, 0,00, 0,00, 0,00, 0,00, -0,04, 0,05, 1,01
68, 0,00, 8983,81, 0,00, 0,00, 0,00, 0,00, 0,00, 0,00, -0,04, 0,05, 1,01
69, 0,00, 8972,62, 0,00, 0,00, 0,00, 0,00, 0,00, 0,00, -0,04, 0,05, 1,01
70, 0,00, 8945,93, 0,00, 0,00, 0,00, 0,00, 0,00, 0,00, -0,04, 0,05, 1,01
71, 0,00, 8933,17, 0,00, 0,00, 0,00, 0,00, 0,00, 0,00, -0,04, 0,05, 1,01
72, 0,00, 8972,48, 0,00, 0,00, 0,00, 0,00, 0,00, 0,00, -0,05, 0,05, 1,01
73, 0,00, 8990,61, 0,00, 0,00, 0,00, 0,00, 0,00, 0,00, -0,05, 0,05, 1,01
74, 0,00, 8973,40, 0,00, 0,00, 0,00, 0,00, 0,00, 0,00, -0,05, 0,05, 1,01
75, 0,00, 8942,40, 0,00, 0,00, 0,00, 0,00, 0,00, 0,00, -0,05, 0,05, 1,01
76, 0,00, 8932,54, 0,00, 0,00, 0,00, 0,00, 0,00, 0,00, -0,05, 0,05, 1,01
77, 0,00, 8973,76, 0,00, 0,00, 0,00, 0,00, 0,00, 0,00, -0,05, 0,04, 1,02
78, 0,00, 8989,33, 0,00, 0,00, 0,00, 0,00, 0,00, 0,00, -0,05, 0,04, 1,02
79, 0,00, 8975,28, 0,00, 0,00, 0,00, 0,00, 0,00, 0,00, -0,05, 0,04, 1,02
80, 0,00, 8950,93, 0,00, 0,00, 0,00, 0,00, 0,00, 0,00, -0,05, 0,04, 1,02
81, 0,00, 8944,01, 0,00, 0,00, 0,00, 0,00, 0,00, 0,00, -0,05, 0,04, 1,02
82, 0,00, 8983,39, 0,00, 0,00, 0,00, 0,00, 0,00, 0,00, -0,04, 0,04, 1,02
83, 0,00, 8999,39, 0,00, 0,00, 0,00, 0,00, 0,00, 0,00, -0,04, 0,04, 1,02
84, 0,00, 8989,33, 0,00, 0,00, 0,00, 0,00, 0,00, 0,00, -0,04, 0,04, 1,02
85, 0,00, 8948,39, 0,00, 0,00, 0,00, 0,00, 0,00, 0,00, -0,04, 0,04, 1,02
86, 0,00, 8925,30, 0,00, 0,00, 0,00, 0,00, 0,00, 0,00, -0,04, 0,04, 1,02
87, 0,00, 8970,20, 0,00, 0,00, 0,00, 0,00, 0,00, 0,00, -0,04, 0,04, 1,01
88, 0,00, 8986,47, 0,00, 0,00, 0,00, 0,00, 0,00, 0,00, -0,04, 0,04, 1,01
89, 0,00, 8972,75, 0,00, 0,00, 0,00, 0,00, 0,00, 0,00, -0,04, 0,04, 1,01
90, 0,00, 8947,58, 0,00, 0,00, 0,00, 0,00, 0,00, 0,00, -0,04, 0,04, 1,01
91, 0,00, 8937,01, 0,00, 0,00, 0,00, 0,00, 0,00, 0,00, -0,04, 0,04, 1,01
92, 0,00, 8977,22, 0,00, 0,00, 0,00, 0,00, 0,00, 0,00, -0,05, 0,04, 1,02
93, 0,00, 8991,06, 0,00, 0,00, 0,00, 0,00, 0,00, 0,00, -0,05, 0,04, 1,02
94, 0,00, 8975,23, 0,00, 0,00, 0,00, 0,00, 0,00, 0,00, -0,05, 0,04, 1,02
95, 0,00, 8941,64, 0,00, 0,00, 0,00, 0,00, 0,00, 0,00, -0,05, 0,04, 1,02
96, 0,00, 8936,76, 0,00, 0,00, 0,00, 0,00, 0,00, 0,00, -0,05, 0,04, 1,02
97, 0,00, 8981,62, 0,00, 0,00, 0,00, 0,00, 0,00, 0,00, -0,05, 0,05, 1,02
98, 0,00, 8994,92, 0,00, 0,00, 0,00, 0,00, 0,00, 0,00, -0,05, 0,05, 1,02
99, 0,00, 8977,56, 0,00, 0,00, 0,00, 0,00, 0,00, 0,00, -0,05, 0,05, 1,02
100, 0,00, 8949,37, 0,00, 0,00, 0,00, 0,00, 0,00, 0,00, -0,05, 0,05, 1,02
101, 0,00, 8937,59, 0,00, 0,00, 0,00, 0,00, 0,00, 0,00, -0,05, 0,05, 1,02
102, 0,00, 8973,26, 0,00, 0,00, 0,00, 0,00, 0,00, 0,00, -0,05, 0,05, 1,02
103, 0,00, 8988,84, 0,00, 0,00, 0,00, 0,00, 0,00, 0,00, -0,05, 0,05, 1,02
104, 0,00, 8975,63, 0,00, 0,00, 0,00, 0,00, 0,00, 0,00, -0,05, 0,05, 1,02
105, 0,00, 8947,36, 0,00, 0,00, 0,00, 0,00, 0,00, 0,00, -0,05, 0,05, 1,02
106, 0,00, 8932,27, 0,00, 0,00, 0,00, 0,00, 0,00, 0,00, -0,05, 0,05, 1,02
107, 0,00, 8972,35, 0,00, 0,00, 0,00, 0,00, 0,00, 0,00, -0,05, 0,05, 1,02
108, 0,00, 8991,41, 0,00, 0,00, 0,00, 0,00, 0,00, 0,00, -0,05, 0,05, 1,02
109, 0,00, 8976,48, 0,00, 0,00, 0,00, 0,00, 0,00, 0,00, -0,05, 0,05, 1,02
110, 0,00, 8946,35, 0,00, 0,00, 0,00, 0,00, 0,00, 0,00, -0,05, 0,05, 1,02
111, 0,00, 8935,47, 0,00, 0,00, 0,00, 0,00, 0,00, 0,00, -0,05, 0,05, 1,02
112, 0,00, 8976,17, 0,00, 0,00, 0,00, 0,00, 0,00, 0,00, -0,04, 0,05, 1,01
113, 0,00, 8996,44, 0,00, 0,00, 0,00, 0,00, 0,00, 0,00, -0,04, 0,05, 1,01
114, 0,00, 8986,92, 0,00, 0,00, 0,00, 0,00, 0,00, 0,00, -0,04, 0,05, 1,01
115, 0,00, 8956,52, 0,00, 0,00, 0,00, 0,00, 0,00, 0,00, -0,04, 0,05, 1,01
116, 0,00, 8941,17, 0,00, 0,00, 0,00, 0,00, 0,00, 0,00, -0,04, 0,05, 1,01
117, 0,00, 8980,42, 0,00, 0,00, 0,00, 0,00, 0,00, 0,00, -0,04, 0,05, 1,02
118, 0,00, 8997,18, 0,00, 0,00, 0,00, 0,00, 0,00, 0,00, -0,04, 0,05, 1,02
119, 0,00, 8981,44, 0,00, 0,00, 0,00, 0,00, 0,00, 0,00, -0,04, 0,05, 1,02
120, 0,00, 8954,20, 0,00, 0,00, 0,00, 0,00, 0,00, 0,00, -0,04, 0,05, 1,02
121, 0,00, 8943,83, 0,00, 0,00, 0,00, 0,00, 0,00, 0,00, -0,04, 0,05, 1,02
122, 0,00, 8981,58, 0,00, 0,00, 0,00, 0,00, 0,00, 0,00, -0,04, 0,05, 1,02
123, 0,00, 8997,05, 0,00, 0,00, 0,00, 0,00, 0,00, 0,00, -0,04, 0,05, 1,02
124, 0,00, 8983,08, 0,00, 0,00, 0,00, 0,00, 0,00, 0,00, -0,04, 0,05, 1,02
125, 0,00, 8957,30, 0,00, 0,00, 0,00, 0,00, 0,00, 0,00, -0,04, 0,05, 1,02
126, 0,00, 8937,93, 0,00, 0,00, 0,00, 0,00, 0,00, 0,00, -0,04, 0,05, 1,02
127, 0,00, 8973,06, 0,00, 0,00, 0,00, 0,00, 0,00, 0,00, -0,04, 0,05, 1,01
128, 0,00, 8996,69, 0,00, 0,00, 0,00, 0,00, 0,00, 0,00, -0,04, 0,05, 1,01
129, 0,00, 8978,43, 0,00, 0,00, 0,00, 0,00, 0,00, 0,00, -0,04, 0,05, 1,01
130, 0,00, 8947,11, 0,00, 0,00, 0,00, 0,00, 0,00, 0,00, -0,04, 0,05, 1,01
131, 0,00, 8933,10, 0,00, 0,00, 0,00, 0,00, 0,00, 0,00, -0,04, 0,05, 1,01
132, 0,00, 8975,54, 0,00, 0,00, 0,00, 0,00, 0,00, 0,00, -0,05, 0,05, 1,02
133, 0,00, 8995,55, 0,00, 0,00, 0,00, 0,00, 0,00, 0,00, -0,05, 0,05, 1,02
134, 0,00, 8980,24, 0,00, 0,00, 0,00, 0,00, 0,00, 0,00, -0,05, 0,05, 1,02
135, 0,00, 8956,66, 0,00, 0,00, 0,00, 0,00, 0,00, 0,00, -0,05, 0,05, 1,02
136, 0,00, 8940,74, 0,00, 0,00, 0,00, 0,00, 0,00, 0,00, -0,05, 0,05, 1,02
137, 0,00, 8975,86, 0,00, 0,00, 0,00, 0,00, 0,00, 0,00, -0,05, 0,04, 1,02
138, 0,00, 8994,97, 0,00, 0,00, 0,00, 0,00, 0,00, 0,00, -0,05, 0,04, 1,02
139, 0,00, 8977,38, 0,00, 0,00, 0,00, 0,00, 0,00, 0,00, -0,05, 0,04, 1,02
140, 0,00, 8949,15, 0,00, 0,00, 0,00, 0,00, 0,00, 0,00, -0,05, 0,04, 1,02
141, 0,00, 8936,12, 0,00, 0,00, 0,00, 0,00, 0,00, 0,00, -0,05, 0,04, 1,02
142, 0,00, 8977,51, 0,00, 0,00, 0,00, 0,00, 0,00, 0,00, -0,05, 0,04, 1,02
143, 0,00, 8999,77, 0,00, 0,00, 0,00, 0,00, 0,00, 0,00, -0,05, 0,04, 1,02
144, 0,00, 8992,84, 0,00, 0,00, 0,00, 0,00, 0,00, 0,00, -0,05, 0,04, 1,02
145, 0,00, 8970,56, 0,00, 0,00, 0,00, 0,00, 0,00, 0,00, -0,05, 0,04, 1,02
146, 0,00, 8948,72, 0,00, 0,00, 0,00, 0,00, 0,00, 0,00, -0,05, 0,04, 1,02
147, 0,00, 8977,56, 0,00, 0,00, 0,00, 0,00, 0,00, 0,00, -0,04, 0,04, 1,01
148, 0,00, 8990,88, 0,00, 0,00, 0,00, 0,00, 0,00, 0,00, -0,04, 0,04, 1,01
149, 0,00, 8983,52, 0,00, 0,00, 0,00, 0,00, 0,00, 0,00, -0,04, 0,04, 1,01
150, 0,00, 8954,58, 0,00, 0,00, 0,00, 0,00, 0,00, 0,00, -0,04, 0,04, 1,01
151, 0,00, 8936,81, 0,00, 0,00, 0,00, 0,00, 0,00, 0,00, -0,04, 0,04, 1,01
152, 0,00, 8978,87, 0,00, 0,00, 0,00, 0,00, 0,00, 0,00, -0,04, 0,05, 1,02
153, 0,00, 9000,62, 0,00, 0,00, 0,00, 0,00, 0,00, 0,00, -0,04, 0,05, 1,02
154, 0,00, 8985,92, 0,00, 0,00, 0,00, 0,00, 0,00, 0,00, -0,04, 0,05, 1,02
155, 0,00, 8963,27, 0,00, 0,00, 0,00, 0,00, 0,00, 0,00, -0,04, 0,05, 1,02
156, 0,00, 8949,55, 0,00, 0,00, 0,00, 0,00, 0,00, 0,00, -0,04, 0,05, 1,02
157, 0,00, 8980,53, 0,00, 0,00, 0,00, 0,00, 0,00, 0,00, -0,04, 0,05, 1,02
158, 0,00, 8995,75, 0,00, 0,00, 0,00, 0,00, 0,00, 0,00, -0,04, 0,05, 1,02
159, 0,00, 8982,70, 0,00, 0,00, 0,00, 0,00, 0,00, 0,00, -0,04, 0,05, 1,02
160, 0,00, 8958,06, 0,00, 0,00, 0,00, 0,00, 0,00, 0,00, -0,04, 0,05, 1,02
161, 0,00, 8943,13, 0,00, 0,00, 0,00, 0,00, 0,00, 0,00, -0,04, 0,05, 1,02
162, 0,00, 8979,54, 0,00, 0,00, 0,00, 0,00, 0,00, 0,00, -0,04, 0,05, 1,02
163, 0,00, 8998,54, 0,00, 0,00, 0,00, 0,00, 0,00, 0,00, -0,04, 0,05, 1,02
164, 0,00, 8987,77, 0,00, 0,00, 0,00, 0,00, 0,00, 0,00, -0,04, 0,05, 1,02
165, 0,00, 8957,68, 0,00, 0,00, 0,00, 0,00, 0,00, 0,00, -0,04, 0,05, 1,02
166, 0,00, 8936,03, 0,00, 0,00, 0,00, 0,00, 0,00, 0,00, -0,04, 0,05, 1,02
167, 0,00, 8972,93, 0,00, 0,00, 0,00, 0,00, 0,00, 0,00, -0,04, 0,04, 1,02
168, 0,00, 8996,62, 0,00, 0,00, 0,00, 0,00, 0,00, 0,00, -0,04, 0,04, 1,02
169, 0,00, 8986,67, 0,00, 0,00, 0,00, 0,00, 0,00, 0,00, -0,04, 0,04, 1,02
170, 0,00, 8957,04, 0,00, 0,00, 0,00, 0,00, 0,00, 0,00, -0,04, 0,04, 1,02
171, 0,00, 8932,74, 0,00, 0,00, 0,00, 0,00, 0,00, 0,00, -0,04, 0,04, 1,02
172, 0,00, 8966,98, 0,00, 0,00, 0,00, 0,00, 0,00, 0,00, -0,04, 0,05, 1,02
173, 0,00, 8988,66, 0,00, 0,00, 0,00, 0,00, 0,00, 0,00, -0,04, 0,05, 1,02
174, 0,00, 8978,32, 0,00, 0,00, 0,00, 0,00, 0,00, 0,00, -0,04, 0,05, 1,02
175, 0,00, 8952,61, 0,00, 0,00, 0,00, 0,00, 0,00, 0,00, -0,04, 0,05, 1,02
176, 0,00, 8933,03, 0,00, 0,00, 0,00, 0,00, 0,00, 0,00, -0,04, 0,05, 1,02
177, 0,00, 8971,61, 0,00, 0,00, 0,00, 0,00, 0,00, 0,00, -0,04, 0,04, 1,01
178, 0,00, 8997,87, 0,00, 0,00, 0,00, 0,00, 0,00, 0,00, -0,04, 0,04, 1,01
179, 0,00, 8981,53, 0,00, 0,00, 0,00, 0,00, 0,00, 0,00, -0,04, 0,04, 1,01
180, 0,00, 8951,45, 0,00, 0,00, 0,00, 0,00, 0,00, 0,00, -0,04, 0,04, 1,01
181, 0,00, 8931,56, 0,00, 0,00, 0,00, 0,00, 0,00, 0,00, -0,04, 0,04, 1,01
182, 0,00, 8963,67, 0,00, 0,00, 0,00, 0,00, 0,00, 0,00, -0,04, 0,04, 1,01
183, 0,00, 8984,35, 0,00, 0,00, 0,00, 0,00, 0,00, 0,00, -0,04, 0,04, 1,02
184, 0,00, 8971,05, 0,00, 0,00, 0,00, 0,00, 0,00, 0,00, -0,04, 0,04, 1,02
185, 0,00, 8944,52, 0,00, 0,00, 0,00, 0,00, 0,00, 0,00, -0,04, 0,04, 1,02
186, 0,00, 8929,70, 0,00, 0,00, 0,00, 0,00, 0,00, 0,00, -0,04, 0,04, 1,02
187, 0,00, 8963,90, 0,00, 0,00, 0,00, 0,00, 0,00, 0,00, -0,04, 0,04, 1,02
188, 0,00, 8985,13, 0,00, 0,00, 0,00, 0,00, 0,00, 0,00, -0,04, 0,05, 1,01
189, 0,00, 8974,25, 0,00, 0,00, 0,00, 0,00, 0,00, 0,00, -0,04, 0,05, 1,01
190, 0,00, 8950,62, 0,00, 0,00, 0,00, 0,00, 0,00, 0,00, -0,04, 0,05, 1,01
191, 0,00, 8931,51, 0,00, 0,00, 0,00, 0,00, 0,00, 0,00, -0,04, 0,05, 1,01
192, 0,00, 8963,47, 0,00, 0,00, 0,00, 0,00, 0,00, 0,00, -0,04, 0,05, 1,01
193, 0,00, 8989,16, 0,00, 0,00, 0,00, 0,00, 0,00, 0,00, -0,05, 0,05, 1,01
194, 0,00, 8978,14, 0,00, 0,00, 0,00, 0,00, 0,00, 0,00, -0,05, 0,05, 1,01
195, 0,00, 8949,84, 0,00, 0,00, 0,00, 0,00, 0,00, 0,00, -0,05, 0,05, 1,01
196, 0,00, 8926,37, 0,00, 0,00, 0,00, 0,00, 0,00, 0,00, -0,05, 0,05, 1,01
197, 0,00, 8959,76, 0,00, 0,00, 0,00, 0,00, 0,00, 0,00, -0,05, 0,05, 1,01
198, 0,00, 8981,47, 0,00, 0,00, 0,00, 0,00, 0,00, 0,00, -0,04, 0,04, 1,01
199, 0,00, 8968,79, 0,00, 0,00, 0,00, 0,00, 0,00, 0,00, -0,04, 0,04, 1,01
200, 0,00, 8945,46, 0,00, 0,00, 0,00, 0,00, 0,00, 0,00, -0,04, 0,04, 1,01
201, 0,00, 8928,72, 0,00, 0,00, 0,00, 0,00, 0,00, 0,00, -0,04, 0,04, 1,01
202, 0,00, 8961,89, 0,00, 0,00, 0,00, 0,00, 0,00, 0,00, -0,04, 0,04, 1,01
203, 0,00, 8981,74, 0,00, 0,00, 0,00, 0,00, 0,00, 0,00, -0,04, 0,04, 1,01
204, 0,00, 8971,72, 0,00, 0,00, 0,00, 0,00, 0,00, 0,00, -0,04, 0,04, 1,01
205, 0,00, 8947,81, 0,00, 0,00, 0,00, 0,00, 0,00, 0,00, -0,04, 0,04, 1,01
206, 0,00, 8925,90, 0,00, 0,00, 0,00, 0,00, 0,00, 0,00, -0,04, 0,04, 1,01
207, 0,00, 8961,55, 0,00, 0,00, 0,00, 0,00, 0,00, 0,00, -0,04, 0,04, 1,01
208, 0,00, 8987,79, 0,00, 0,00, 0,00, 0,00, 0,00, 0,00, -0,04, 0,04, 1,01
209, 0,00, 8973,42, 0,00, 0,00, 0,00, 0,00, 0,00, 0,00, -0,04, 0,04, 1,01
210, 0,00, 8947,29, 0,00, 0,00, 0,00, 0,00, 0,00, 0,00, -0,04, 0,04, 1,01
211, 0,00, 8927,58, 0,00, 0,00, 0,00, 0,00, 0,00, 0,00, -0,04, 0,04, 1,01
212, 0,00, 8956,25, 0,00, 0,00, 0,00, 0,00, 0,00, 0,00, -0,04, 0,04, 1,01
213, 0,00, 8984,86, 0,00, 0,00, 0,00, 0,00, 0,00, 0,00, -0,04, 0,04, 1,02
214, 0,00, 8975,28, 0,00, 0,00, 0,00, 0,00, 0,00, 0,00, -0,04, 0,04, 1,02
215, 0,00, 8949,71, 0,00, 0,00, 0,00, 0,00, 0,00, 0,00, -0,04, 0,04, 1,02
216, 0,00, 8931,98, 0,00, 0,00, 0,00, 0,00, 0,00, 0,00, -0,04, 0,04, 1,02
217, 0,00, 8963,45, 0,00, 0,00, 0,00, 0,00, 0,00, 0,00, -0,04, 0,04, 1,02
218, 0,00, 8983,75, 0,00, 0,00, 0,00, 0,00, 0,00, 0,00, -0,05, 0,04, 1,02
219, 0,00, 8966,69, 0,00, 0,00, 0,00, 0,00, 0,00, 0,00, -0,05, 0,04, 1,02
220, 0,00, 8947,87, 0,00, 0,00, 0,00, 0,00, 0,00, 0,00, -0,05, 0,04, 1,02
221, 0,00, 8930,64, 0,00, 0,00, 0,00, 0,00, 0,00, 0,00, -0,05, 0,04, 1,02
222, 0,00, 8960,01, 0,00, 0,00, 0,00, 0,00, 0,00, 0,00, -0,05, 0,04, 1,02
223, 0,00, 8986,43, 0,00, 0,00, 0,00, 0,00, 0,00, 0,00, -0,04, 0,04, 1,02
224, 0,00, 8977,71, 0,00, 0,00, 0,00, 0,00, 0,00, 0,00, -0,04, 0,04, 1,02
225, 0,00, 8947,38, 0,00, 0,00, 0,00, 0,00, 0,00, 0,00, -0,04, 0,04, 1,02
226, 0,00, 8924,96, 0,00, 0,00, 0,00, 0,00, 0,00, 0,00, -0,04, 0,04, 1,02
227, 0,00, 8955,67, 0,00, 0,00, 0,00, 0,00, 0,00, 0,00, -0,04, 0,04, 1,02
228, 0,00, 8987,70, 0,00, 0,00, 0,00, 0,00, 0,00, 0,00, -0,04, 0,04, 1,01
229, 0,00, 8979,14, 0,00, 0,00, 0,00, 0,00, 0,00, 0,00, -0,04, 0,04, 1,01
230, 0,00, 8946,71, 0,00, 0,00, 0,00, 0,00, 0,00, 0,00, -0,04, 0,04, 1,01
231, 0,00, 8916,07, 0,00, 0,00, 0,00, 0,00, 0,00, 0,00, -0,04, 0,04, 1,01
232, 0,00, 8951,05, 0,00, 0,00, 0,00, 0,00, 0,00, 0,00, -0,04, 0,04, 1,01
233, 0,00, 8981,00, 0,00, 0,00, 0,00, 0,00, 0,00, 0,00, -0,05, 0,05, 1,01
234, 0,00, 8969,38, 0,00, 0,00, 0,00, 0,00, 0,00, 0,00, -0,05, 0,05, 1,01
235, 0,00, 8944,94, 0,00, 0,00, 0,00, 0,00, 0,00, 0,00, -0,05, 0,05, 1,01
236, 0,00, 8923,98, 0,00, 0,00, 0,00, 0,00, 0,00, 0,00, -0,05, 0,05, 1,01
237, 0,00, 8956,66, 0,00, 0,00, 0,00, 0,00, 0,00, 0,00, -0,05, 0,05, 1,01
238, 0,00, 8987,43, 0,00, 0,00, 0,00, 0,00, 0,00, 0,00, -0,04, 0,05, 1,01
239, 0,00, 8973,53, 0,00, 0,00, 0,00, 0,00, 0,00, 0,00, -0,04, 0,05, 1,01
240, 0,00, 8938,24, 0,00, 0,00, 0,00, 0,00, 0,00, 0,00, -0,04, 0,05, 1,01
241, 0,00, 8910,21, 0,00, 0,00, 0,00, 0,00, 0,00, 0,00, -0,04, 0,05, 1,01
242, 0,00, 8941,66, 0,00, 0,00, 0,00, 0,00, 0,00, 0,00, -0,04, 0,05, 1,01
243, 0,00, 8970,74, 0,00, 0,00, 0,00, 0,00, 0,00, 0,00, -0,04, 0,04, 1,02
244, 0,00, 8971,34, 0,00, 0,00, 0,00, 0,00, 0,00, 0,00, -0,04, 0,04, 1,02
245, 0,00, 8944,70, 0,00, 0,00, 0,00, 0,00, 0,00, 0,00, -0,04, 0,04, 1,02
246, 0,00, 8919,15, 0,00, 0,00, 0,00, 0,00, 0,00, 0,00, -0,04, 0,04, 1,02
247, 0,00, 8950,24, 0,00, 0,00, 0,00, 0,00, 0,00, 0,00, -0,04, 0,04, 1,02
248, 0,00, 8979,46, 0,00, 0,00, 0,00, 0,00, 0,00, 0,00, -0,05, 0,04, 1,01
249, 0,00, 8968,15, 0,00, 0,00, 0,00, 0,00, 0,00, 0,00, -0,05, 0,04, 1,01
250, 0,00, 8947,22, 0,00, 0,00, 0,00, 0,00, 0,00, 0,00, -0,05, 0,04, 1,01
251, 0,00, 8927,46, 0,00, 0,00, 0,00, 0,00, 0,00, 0,00, -0,05, 0,04, 1,01
252, 0,00, 8956,08, 0,00, 0,00, 0,00, 0,00, 0,00, 0,00, -0,05, 0,04, 1,01
253, 0,00, 8982,12, 0,00, 0,00, 0,00, 0,00, 0,00, 0,00, -0,04, 0,05, 1,01
254, 0,00, 8966,42, 0,00, 0,00, 0,00, 0,00, 0,00, 0,00, -0,04, 0,05, 1,01
255, 0,00, 8936,83, 0,00, 0,00, 0,00, 0,00, 0,00, 0,00, -0,04, 0,05, 1,01
0, 0,00, 8909,49, 0,00, 0,00, 0,00, 0,00, 0,00, 0,00, -0,04, 0,05, 1,01
1, 0,00, 8934,06, 0,00, 0,00, 0,00, 0,00, 0,00, 0,00, -0,04, 0,05, 1,01
2, 0,00, 8963,05, 0,00, 0,00, 0,00, 0,00, 0,00, 0,00, -0,04, 0,04, 1,01
3, 0,00, 8952,54, 0,00, 0,00, 0,00, 0,00, 0,00, 0,00, -0,04, 0,04, 1,01
4, 0,00, 8938,62, 0,00, 0,00, 0,00, 0,00, 0,00, 0,00, -0,04, 0,04, 1,01
5, 0,00, 8914,01, 0,00, 0,00, 0,00, 0,00, 0,00, 0,00, -0,04, 0,04, 1,01
6, 0,00, 8940,61, 0,00, 0,00, 0,00, 0,00, 0,00, 0,00, -0,04, 0,04, 1,01
7, 0,00, 8962,51, 0,00, 0,00, 0,00, 0,00, 0,00, 0,00, -0,04, 0,04, 1,01
8, 0,00, 8953,82, 0,00, 0,00, 0,00, 0,00, 0,00, 0,00, -0,04, 0,04, 1,01
9, 0,00, 8937,99, 0,00, 0,00, 0,00, 0,00, 0,00, 0,00, -0,04, 0,04, 1,01
10, 0,00, 8922,17, 0,00, 0,00, 0,00, 0,00, 0,00, 0,00, -0,04, 0,04, 1,01
11, 0,00, 8954,53, 0,00, 0,00, 0,00, 0,00, 0,00, 0,00, -0,04, 0,04, 1,01
12, 0,00, 8983,70, 0,00, 0,00, 0,00, 0,00, 0,00, 0,00, -0,04, 0,04, 1,01
13, 0,00, 8969,78, 0,00, 0,00, 0,00, 0,00, 0,00, 0,00, -0,04, 0,04, 1,01
14, 0,00, 8946,84, 0,00, 0,00, 0,00, 0,00, 0,00, 0,00, -0,04, 0,04, 1,01
15, 0,00, 8924,72, 0,00, 0,00, 0,00, 0,00, 0,00, 0,00, -0,04, 0,04, 1,01
16, 0,00, 8951,31, 0,00, 0,00, 0,00, 0,00, 0,00, 0,00, -0,04, 0,04, 1,01
17, 0,00, 8971,30, 0,00, 0,00, 0,00, 0,00, 0,00, 0,00, -0,05, 0,05, 1,01
18, 0,00, 8959,27, 0,00, 0,00, 0,00, 0,00, 0,00, 0,00, -0,05, 0,05, 1,01
19, 0,00, 8937,72, 0,00, 0,00, 0,00, 0,00, 0,00, 0,00, -0,05, 0,05, 1,01
20, 0,00, 8913,50, 0,00, 0,00, 0,00, 0,00, 0,00, 0,00, -0,05, 0,05, 1,01
21, 0,00, 8940,05, 0,00, 0,00, 0,00, 0,00, 0,00, 0,00, -0,05, 0,05, 1,01
22, 0,00, 8970,45, 0,00, 0,00, 0,00, 0,00, 0,00, 0,00, -0,04, 0,04, 1,02
23, 0,00, 8961,62, 0,00, 0,00, 0,00, 0,00, 0,00, 0,00, -0,04, 0,04, 1,02
24, 0,00, 8939,56, 0,00, 0,00, 0,00, 0,00, 0,00, 0,00, -0,04, 0,04, 1,02
25, 0,00, 8919,66, 0,00, 0,00, 0,00, 0,00, 0,00, 0,00, -0,04, 0,04, 1,02
26, 0,00, 8947,98, 0,00, 0,00, 0,00, 0,00, 0,00, 0,00, -0,04, 0,04, 1,02
27, 0,00, 8970,89, 0,00, 0,00, 0,00, 0,00, 0,00, 0,00, -0,04, 0,04, 1,01
28, 0,00, 8952,83, 0,00, 0,00, 0,00, 0,00, 0,00, 0,00, -0,04, 0,04, 1,01
29, 0,00, 8935,20, 0,00, 0,00, 0,00, 0,00, 0,00, 0,00, -0,04, 0,04, 1,01
30, 0,00, 8917,03, 0,00, 0,00, 0,00, 0,00, 0,00, 0,00, -0,04, 0,04, 1,01
31, 0,00, 8942,66, 0,00, 0,00, 0,00, 0,00, 0,00, 0,00, -0,04, 0,04, 1,01
32, 0,00, 8966,60, 0,00, 0,00, 0,00, 0,00, 0,00, 0,00, -0,05, 0,04, 1,01
33, 0,00, 8957,55, 0,00, 0,00, 0,00, 0,00, 0,00, 0,00, -0,05, 0,04, 1,01
34, 0,00, 8940,14, 0,00, 0,00, 0,00, 0,00, 0,00, 0,00, -0,05, 0,04, 1,01
35, 0,00, 8918,41, 0,00, 0,00, 0,00, 0,00, 0,00, 0,00, -0,05, 0,04, 1,01
36, 0,00, 8943,76, 0,00, 0,00, 0,00, 0,00, 0,00, 0,00, -0,05, 0,04, 1,01
37, 0,00, 8971,79, 0,00, 0,00, 0,00, 0,00, 0,00, 0,00, -0,05, 0,04, 1,01
38, 0,00, 8965,82, 0,00, 0,00, 0,00, 0,00, 0,00, 0,00, -0,05, 0,04, 1,01
39, 0,00, 8945,03, 0,00, 0,00, 0,00, 0,00, 0,00, 0,00, -0,05, 0,04, 1,01
40, 0,00, 8921,54, 0,00, 0,00, 0,00, 0,00, 0,00, 0,00, -0,05, 0,04, 1,01
41, 0,00, 8941,70, 0,00, 0,00, 0,00, 0,00, 0,00, 0,00, -0,05, 0,04, 1,01
42, 0,00, 8969,00, 0,00, 0,00, 0,00, 0,00, 0,00, 0,00, -0,05, 0,04, 1,01
43, 0,00, 8959,54, 0,00, 0,00, 0,00, 0,00, 0,00, 0,00, -0,05, 0,04, 1,01
44, 0,00, 8932,00, 0,00, 0,00, 0,00, 0,00, 0,00, 0,00, -0,05, 0,04, 1,01
45, 0,00, 8904,40, 0,00, 0,00, 0,00, 0,00, 0,00, 0,00, -0,05, 0,04, 1,01
46, 0,00, 8937,30, 0,00, 0,00, 0,00, 0,00, 0,00, 0,00, -0,05, 0,04, 1,01
47, 0,00, 8969,93, 0,00, 0,00, 0,00, 0,00, 0,00, 0,00, -0,05, 0,04, 1,02
48, 0,00, 8960,90, 0,00, 0,00, 0,00, 0,00, 0,00, 0,00, -0,05, 0,04, 1,02
49, 0,00, 8935,24, 0,00, 0,00, 0,00, 0,00, 0,00, 0,00, -0,05, 0,04, 1,02
50, 0,00, 8912,76, 0,00, 0,00, 0,00, 0,00, 0,00, 0,00, -0,05, 0,04, 1,02
51, 0,00, 8943,40, 0,00, 0,00, 0,00, 0,00, 0,00, 0,00, -0,05, 0,04, 1,02
52, 0,00, 8978,25, 0,00, 0,00, 0,00, 0,00, 0,00, 0,00, -0,05, 0,04, 1,02
53, 0,00, 8969,91, 0,00, 0,00, 0,00, 0,00, 0,00, 0,00, -0,05, 0,04, 1,02
54, 0,00, 8951,61, 0,00, 0,00, 0,00, 0,00, 0,00, 0,00, -0,05, 0,04, 1,02
55, 0,00, 8922,50, 0,00, 0,00, 0,00, 0,00, 0,00, 0,00, -0,05, 0,04, 1,02
56, 0,00, 8934,86, 0,00, 0,00, 0,00, 0,00, 0,00, 0,00, -0,05, 0,04, 1,02
57, 0,00, 8962,63, 0,00, 0,00, 0,00, 0,00, 0,00, 0,00, -0,05, 0,04, 1,01
58, 0,00, 8961,78, 0,00, 0,00, 0,00, 0,00, 0,00, 0,00, -0,05, 0,04, 1,01
59, 0,00, 8938,42, 0,00, 0,00, 0,00, 0,00, 0,00, 0,00, -0,05, 0,04, 1,01
60, 0,00, 8913,54, 0,00, 0,00, 0,00, 0,00, 0,00, 0,00, -0,05, 0,04, 1,01
61, 0,00, 8941,30, 0,00, 0,00, 0,00, 0,00, 0,00, 0,00, -0,05, 0,04, 1,01
62, 0,00, 8974,72, 0,00, 0,00, 0,00, 0,00, 0,00, 0,00, -0,04, 0,05, 1,01
63, 0,00, 8962,09, 0,00, 0,00, 0,00, 0,00, 0,00, 0,00, -0,04, 0,05, 1,01
64, 0,00, 8943,00, 0,00, 0,00, 0,00, 0,00, 0,00, 0,00, -0,04, 0,05, 1,01
65, 0,00, 8919,35, 0,00, 0,00, 0,00, 0,00, 0,00, 0,00, -0,04, 0,05, 1,01
66, 0,00, 8942,80, 0,00, 0,00, 0,00, 0,00, 0,00, 0,00, -0,04, 0,05, 1,01
67, 0,00, 8971,30, 0,00, 0,00, 0,00, 0,00, 0,00, 0,00, -0,05, 0,05, 1,01
68, 0,00, 8960,43, 0,00, 0,00, 0,00, 0,00, 0,00, 0,00, -0,05, 0,05, 1,01
69, 0,00, 8943,22, 0,00, 0,00, 0,00, 0,00, 0,00, 0,00, -0,05, 0,05, 1,01
70, 0,00, 8921,68, 0,00, 0,00, 0,00, 0,00, 0,00, 0,00, -0,05, 0,05, 1,01
71, 0,00, 8939,67, 0,00, 0,00, 0,00, 0,00, 0,00, 0,00, -0,05, 0,05, 1,01
72, 0,00, 8966,60, 0,00, 0,00, 0,00, 0,00, 0,00, 0,00, -0,05, 0,04, 1,01
73, 0,00, 8957,98, 0,00, 0,00, 0,00, 0,00, 0,00, 0,00, -0,05, 0,04, 1,01
74, 0,00, 8937,86, 0,00, 0,00, 0,00, 0,00, 0,00, 0,00, -0,05, 0,04, 1,01
75, 0,00, 8916,58, 0,00, 0,00, 0,00, 0,00, 0,00, 0,00, -0,05, 0,04, 1,01
76, 0,00, 8938,66, 0,00, 0,00, 0,00, 0,00, 0,00, 0,00, -0,05, 0,04, 1,01
77, 0,00, 8972,08, 0,00, 0,00, 0,00, 0,00, 0,00, 0,00, -0,05, 0,04, 1,02
78, 0,00, 8965,35, 0,00, 0,00, 0,00, 0,00, 0,00, 0,00, -0,05, 0,04, 1,02
79, 0,00, 8944,90, 0,00, 0,00, 0,00, 0,00, 0,00, 0,00, -0,05, 0,04, 1,02
80, 0,00, 8915,78, 0,00, 0,00, 0,00, 0,00, 0,00, 0,00, -0,05, 0,04, 1,02
81, 0,00, 8927,46, 0,00, 0,00, 0,00, 0,00, 0,00, 0,00, -0,05, 0,04, 1,02
82, 0,00, 8957,71, 0,00, 0,00, 0,00, 0,00, 0,00, 0,00, -0,05, 0,05, 1,01
83, 0,00, 8953,19, 0,00, 0,00, 0,00, 0,00, 0,00, 0,00, -0,05, 0,05, 1,01
84, 0,00, 8937,19, 0,00, 0,00, 0,00, 0,00, 0,00, 0,00, -0,05, 0,05, 1,01
85, 0,00, 8914,32, 0,00, 0,00, 0,00, 0,00, 0,00, 0,00, -0,05, 0,05, 1,01
86, 0,00, 8931,71, 0,00, 0,00, 0,00, 0,00, 0,00, 0,00, -0,05, 0,05, 1,01
87, 0,00, 8964,90, 0,00, 0,00, 0,00, 0,00, 0,00, 0,00, -0,04, 0,05, 1,02
88, 0,00, 8957,30, 0,00, 0,00, 0,00, 0,00, 0,00, 0,00, -0,04, 0,05, 1,02
89, 0,00, 8936,85, 0,00, 0,00, 0,00, 0,00, 0,00, 0,00, -0,04, 0,05, 1,02
90, 0,00, 8914,46, 0,00, 0,00, 0,00, 0,00, 0,00, 0,00, -0,04, 0,05, 1,02
91, 0,00, 8938,98, 0,00, 0,00, 0,00, 0,00, 0,00, 0,00, -0,04, 0,05, 1,02
92, 0,00, 8974,43, 0,00, 0,00, 0,00, 0,00, 0,00, 0,00, -0,05, 0,04, 1,02
93, 0,00, 8968,17, 0,00, 0,00, 0,00, 0,00, 0,00, 0,00, -0,05, 0,04, 1,02
94, 0,00, 8950,60, 0,00, 0,00, 0,00, 0,00, 0,00, 0,00, -0,05, 0,04, 1,02
95, 0,00, 8922,35, 0,00, 0,00, 0,00, 0,00, 0,00, 0,00, -0,05, 0,04, 1,02
96, 0,00, 8942,37, 0,00, 0,00, 0,00, 0,00, 0,00, 0,00, -0,05, 0,04, 1,02
97, 0,00, 8978,43, 0,00, 0,00, 0,00, 0,00, 0,00, 0,00, -0,04, 0,04, 1,02
98, 0,00, 8972,33, 0,00, 0,00, 0,00, 0,00, 0,00, 0,00, -0,04, 0,04, 1,02
99, 0,00, 8952,97, 0,00, 0,00, 0,00, 0,00, 0,00, 0,00, -0,04, 0,04, 1,02
100, 0,00, 8919,64, 0,00, 0,00, 0,00, 0,00, 0,00, 0,00, -0,04, 0,04, 1,02
101, 0,00, 8935,38, 0,00, 0,00, 0,00, 0,00, 0,00, 0,00, -0,04, 0,04, 1,02
102, 0,00, 8968,84, 0,00, 0,00, 0,00, 0,00, 0,00, 0,00, -0,04, 0,04, 1,01
103, 0,00, 8963,00, 0,00, 0,00, 0,00, 0,00, 0,00, 0,00, -0,04, 0,04, 1,01
104, 0,00, 8934,46, 0,00, 0,00, 0,00, 0,00, 0,00, 0,00, -0,04, 0,04, 1,01
105, 0,00, 8908,82, 0,00, 0,00, 0,00, 0,00, 0,00, 0,00, -0,04, 0,04, 1,01
106, 0,00, 8934,39, 0,00, 0,00, 0,00, 0,00, 0,00, 0,00, -0,04, 0,04, 1,01
107, 0,00, 8966,09, 0,00, 0,00, 0,00, 0,00, 0,00, 0,00, -0,04, 0,04, 1,02
108, 0,00, 8959,43, 0,00, 0,00, 0,00, 0,00, 0,00, 0,00, -0,04, 0,04, 1,02
109, 0,00, 8937,23, 0,00, 0,00, 0,00, 0,00, 0,00, 0,00, -0,04, 0,04, 1,02
110, 0,00, 8905,63, 0,00, 0,00, 0,00, 0,00, 0,00, 0,00, -0,04, 0,04, 1,02
111, 0,00, 8923,93, 0,00, 0,00, 0,00, 0,00, 0,00, 0,00, -0,04, 0,04, 1,02
112, 0,00, 8959,56, 0,00, 0,00, 0,00, 0,00, 0,00, 0,00, -0,05, 0,04, 1,01
113, 0,00, 8956,97, 0,00, 0,00, 0,00, 0,00, 0,00, 0,00, -0,05, 0,04, 1,01
114, 0,00, 8942,20, 0,00, 0,00, 0,00, 0,00, 0,00, 0,00, -0,05, 0,04, 1,01
115, 0,00, 8913,07, 0,00, 0,00, 0,00, 0,00, 0,00, 0,00, -0,05, 0,04, 1,01
116, 0,00, 8931,94, 0,00, 0,00, 0,00, 0,00, 0,00, 0,00, -0,05, 0,04, 1,01
117, 0,00, 8966,56, 0,00, 0,00, 0,00, 0,00, 0,00, 0,00, -0,04, 0,05, 1,01
118, 0,00, 8960,77, 0,00, 0,00, 0,00, 0,00, 0,00, 0,00, -0,04, 0,05, 1,01
119, 0,00, 8942,42, 0,00, 0,00, 0,00, 0,00, 0,00, 0,00, -0,04, 0,05, 1,01
120, 0,00, 8913,21, 0,00, 0,00, 0,00, 0,00, 0,00, 0,00, -0,04, 0,05, 1,01
121, 0,00, 8925,99, 0,00, 0,00, 0,00, 0,00, 0,00, 0,00, -0,04, 0,05, 1,01
122, 0,00, 8962,80, 0,00, 0,00, 0,00, 0,00, 0,00, 0,00, -0,04, 0,04, 1,01
123, 0,00, 8960,79, 0,00, 0,00, 0,00, 0,00, 0,00, 0,00, -0,04, 0,04, 1,01
124, 0,00, 8940,21, 0,00, 0,00, 0,00, 0,00, 0,00, 0,00, -0,04, 0,04, 1,01
125, 0,00, 8913,90, 0,00, 0,00, 0,00, 0,00, 0,00, 0,00, -0,04, 0,04, 1,01
126, 0,00, 8930,50, 0,00, 0,00, 0,00, 0,00, 0,00, 0,00, -0,04, 0,04, 1,01
127, 0,00, 8969,78, 0,00, 0,00, 0,00, 0,00, 0,00, 0,00, -0,04, 0,05, 1,01
128, 0,00, 8967,41, 0,00, 0,00, 0,00, 0,00, 0,00, 0,00, -0,04, 0,05, 1,01
129, 0,00, 8936,36, 0,00, 0,00, 0,00, 0,00, 0,00, 0,00, -0,04, 0,05, 1,01
130, 0,00, 8897,42, 0,00, 0,00, 0,00, 0,00, 0,00, 0,00, -0,04, 0,05, 1,01
131, 0,00, 8915,28, 0,00, 0,00, 0,00, 0,00, 0,00, 0,00, -0,04, 0,05, 1,01
132, 0,00, 8956,99, 0,00, 0,00, 0,00, 0,00, 0,00, 0,00, -0,05, 0,05, 1,01
133, 0,00, 8956,99, 0,00, 0,00, 0,00, 0,00, 0,00, 0,00, -0,05, 0,05, 1,01
134, 0,00, 8934,19, 0,00, 0,00, 0,00, 0,00, 0,00, 0,00, -0,05, 0,05, 1,01
135, 0,00, 8901,05, 0,00, 0,00, 0,00, 0,00, 0,00, 0,00, -0,05, 0,05, 1,01
136, 0,00, 8923,24, 0,00, 0,00, 0,00, 0,00, 0,00, 0,00, -0,05, 0,05, 1,01
137, 0,00, 8958,11, 0,00, 0,00, 0,00, 0,00, 0,00, 0,00, -0,05, 0,05, 1,01
138, 0,00, 8950,22, 0,00, 0,00, 0,00, 0,00, 0,00, 0,00, -0,05, 0,05, 1,01
139, 0,00, 8933,17, 0,00, 0,00, 0,00, 0,00, 0,00, 0,00, -0,05, 0,05, 1,01
140, 0,00, 8911,22, 0,00, 0,00, 0,00, 0,00, 0,00, 0,00, -0,05, 0,05, 1,01
141, 0,00, 8933,05, 0,00, 0,00, 0,00, 0,00, 0,00, 0,00, -0,05, 0,05, 1,01
142, 0,00, 8955,81, 0,00, 0,00, 0,00, 0,00, 0,00, 0,00, -0,05, 0,05, 1,02
143, 0,00, 8948,74, 0,00, 0,00, 0,00, 0,00, 0,00, 0,00, -0,05, 0,05, 1,02
144, 0,00, 8931,96, 0,00, 0,00, 0,00, 0,00, 0,00, 0,00, -0,05, 0,05, 1,02
145, 0,00, 8898,25, 0,00, 0,00, 0,00, 0,00, 0,00, 0,00, -0,05, 0,05, 1,02
146, 0,00, 8911,57, 0,00, 0,00, 0,00, 0,00, 0,00, 0,00, -0,05, 0,05, 1,02
147, 0,00, 8944,03, 0,00, 0,00, 0,00, 0,00, 0,00, 0,00, -0,04, 0,05, 1,02
148, 0,00, 8943,27, 0,00, 0,00, 0,00, 0,00, 0,00, 0,00, -0,04, 0,05, 1,02
149, 0,00, 8933,61, 0,00, 0,00, 0,00, 0,00, 0,00, 0,00, -0,04, 0,05, 1,02
150, 0,00, 8904,96, 0,00, 0,00, 0,00, 0,00, 0,00, 0,00, -0,04, 0,05, 1,02
151, 0,00, 8915,51, 0,00, 0,00, 0,00, 0,00, 0,00, 0,00, -0,04, 0,05, 1,02
152, 0,00, 8953,95, 0,00, 0,00, 0,00, 0,00, 0,00, 0,00, -0,04, 0,05, 1,02
153, 0,00, 8953,28, 0,00, 0,00, 0,00, 0,00, 0,00, 0,00, -0,04, 0,05, 1,02
154, 0,00, 8931,60, 0,00, 0,00, 0,00, 0,00, 0,00, 0,00, -0,04, 0,05, 1,02
155, 0,00, 8895,19, 0,00, 0,00, 0,00, 0,00, 0,00, 0,00, -0,04, 0,05, 1,02
156, 0,00, 8914,30, 0,00, 0,00, 0,00, 0,00, 0,00, 0,00, -0,04, 0,05, 1,02
157, 0,00, 8951,96, 0,00, 0,00, 0,00, 0,00, 0,00, 0,00, -0,04, 0,05, 1,02
158, 0,00, 8951,36, 0,00, 0,00, 0,00, 0,00, 0,00, 0,00, -0,04, 0,05, 1,02
159, 0,00, 8932,72, 0,00, 0,00, 0,00, 0,00, 0,00, 0,00, -0,04, 0,05, 1,02
160, 0,00, 8904,35, 0,00, 0,00, 0,00, 0,00, 0,00, 0,00, -0,04, 0,05, 1,02
161, 0,00, 8920,29, 0,00, 0,00, 0,00, 0,00, 0,00, 0,00, -0,04, 0,05, 1,02
162, 0,00, 8953,46, 0,00, 0,00, 0,00, 0,00, 0,00, 0,00, -0,04, 0,04, 1,02
163, 0,00, 8949,03, 0,00, 0,00, 0,00, 0,00, 0,00, 0,00, -0,04, 0,04, 1,02
164, 0,00, 8930,82, 0,00, 0,00, 0,00, 0,00, 0,00, 0,00, -0,04, 0,04, 1,02
165, 0,00, 8902,39, 0,00, 0,00, 0,00, 0,00, 0,00, 0,00, -0,04, 0,04, 1,02
166, 0,00, 8922,68, 0,00, 0,00, 0,00, 0,00, 0,00, 0,00, -0,04, 0,04, 1,02
167, 0,00, 8958,24, 0,00, 0,00, 0,00, 0,00, 0,00, 0,00, -0,04, 0,04, 1,02
168, 0,00, 8951,09, 0,00, 0,00, 0,00, 0,00, 0,00, 0,00, -0,04, 0,04, 1,02
169, 0,00, 8925,65, 0,00, 0,00, 0,00, 0,00, 0,00, 0,00, -0,04, 0,04, 1,02
170, 0,00, 8894,92, 0,00, 0,00, 0,00, 0,00, 0,00, 0,00, -0,04, 0,04, 1,02
171, 0,00, 8912,18, 0,00, 0,00, 0,00, 0,00, 0,00, 0,00, -0,04, 0,04, 1,02
172, 0,00, 8950,06, 0,00, 0,00, 0,00, 0,00, 0,00, 0,00, -0,04, 0,04, 1,02
173, 0,00, 8945,35, 0,00, 0,00, 0,00, 0,00, 0,00, 0,00, -0,04, 0,04, 1,02
174, 0,00, 8928,49, 0,00, 0,00, 0,00, 0,00, 0,00, 0,00, -0,04, 0,04, 1,02
175, 0,00, 8905,74, 0,00, 0,00, 0,00, 0,00, 0,00, 0,00, -0,04, 0,04, 1,02
176, 0,00, 8914,05, 0,00, 0,00, 0,00, 0,00, 0,00, 0,00, -0,04, 0,04, 1,02
177, 0,00, 8950,44, 0,00, 0,00, 0,00, 0,00, 0,00, 0,00, -0,04, 0,04, 1,02
178, 0,00, 8946,60, 0,00, 0,00, 0,00, 0,00, 0,00, 0,00, -0,04, 0,04, 1,02
179, 0,00, 8926,57, 0,00, 0,00, 0,00, 0,00, 0,00, 0,00, -0,04, 0,04, 1,02
180, 0,00, 8899,64, 0,00, 0,00, 0,00, 0,00, 0,00, 0,00, -0,04, 0,04, 1,02
181, 0,00, 8910,05, 0,00, 0,00, 0,00, 0,00, 0,00, 0,00, -0,04, 0,04, 1,02
182, 0,00, 8944,18, 0,00, 0,00, 0,00, 0,00, 0,00, 0,00, -0,04, 0,04, 1,02
183, 0,00, 8945,68, 0,00, 0,00, 0,00, 0,00, 0,00, 0,00, -0,05, 0,05, 1,02
184, 0,00, 8921,21, 0,00, 0,00, 0,00, 0,00, 0,00, 0,00, -0,05, 0,05, 1,02
185, 0,00, 8894,16, 0,00, 0,00, 0,00, 0,00, 0,00, 0,00, -0,05, 0,05, 1,02
186, 0,00, 8910,88, 0,00, 0,00, 0,00, 0,00, 0,00, 0,00, -0,05, 0,05, 1,02
187, 0,00, 8951,47, 0,00, 0,00, 0,00, 0,00, 0,00, 0,00, -0,05, 0,05, 1,02
188, 0,00, 8953,17, 0,00, 0,00, 0,00, 0,00, 0,00, 0,00, -0,04, 0,05, 1,02
189, 0,00, 8934,24, 0,00, 0,00, 0,00, 0,00, 0,00, 0,00, -0,04, 0,05, 1,02
190, 0,00, 8896,73, 0,00, 0,00, 0,00, 0,00, 0,00, 0,00, -0,04, 0,05, 1,02
191, 0,00, 8902,48, 0,00, 0,00, 0,00, 0,00, 0,00, 0,00, -0,04, 0,05, 1,02
192, 0,00, 8946,60, 0,00, 0,00, 0,00, 0,00, 0,00, 0,00, -0,04, 0,05, 1,02
193, 0,00, 8952,52, 0,00, 0,00, 0,00, 0,00, 0,00, 0,00, -0,04, 0,05, 1,02
194, 0,00, 8936,99, 0,00, 0,00, 0,00, 0,00, 0,00, 0,00, -0,04, 0,05, 1,02
195, 0,00, 8909,61, 0,00, 0,00, 0,00, 0,00, 0,00, 0,00, -0,04, 0,05, 1,02
196, 0,00, 8913,67, 0,00, 0,00, 0,00, 0,00, 0,00, 0,00, -0,04, 0,05, 1,02
197, 0,00, 8947,87, 0,00, 0,00, 0,00, 0,00, 0,00, 0,00, -0,04, 0,05, 1,02
198, 0,00, 8950,33, 0,00, 0,00, 0,00, 0,00, 0,00, 0,00, -0,04, 0,04, 1,02
199, 0,00, 8929,61, 0,00, 0,00, 0,00, 0,00, 0,00, 0,00, -0,04, 0,04, 1,02
200, 0,00, 8898,01, 0,00, 0,00, 0,00, 0,00, 0,00, 0,00, -0,04, 0,04, 1,02
201, 0,00, 8906,70, 0,00, 0,00, 0,00, 0,00, 0,00, 0,00, -0,04, 0,04, 1,02
202, 0,00, 8940,72, 0,00, 0,00, 0,00, 0,00, 0,00, 0,00, -0,04, 0,04, 1,02
203, 0,00, 8939,67, 0,00, 0,00, 0,00, 0,00, 0,00, 0,00, -0,04, 0,05, 1,03
204, 0,00, 8926,24, 0,00, 0,00, 0,00, 0,00, 0,00, 0,00, -0,04, 0,05, 1,03
205, 0,00, 8894,81, 0,00, 0,00, 0,00, 0,00, 0,00, 0,00, -0,04, 0,05, 1,03
206, 0,00, 8899,53, 0,00, 0,00, 0,00, 0,00, 0,00, 0,00, -0,04, 0,05, 1,03
207, 0,00, 8934,62, 0,00, 0,00, 0,00, 0,00, 0,00, 0,00, -0,04, 0,05, 1,03
208, 0,00, 8933,84, 0,00, 0,00, 0,00, 0,00, 0,00, 0,00, -0,04, 0,04, 1,02
209, 0,00, 8913,79, 0,00, 0,00, 0,00, 0,00, 0,00, 0,00, -0,04, 0,04, 1,02
210, 0,00, 8886,03, 0,00, 0,00, 0,00, 0,00, 0,00, 0,00, -0,04, 0,04, 1,02
211, 0,00, 8900,96, 0,00, 0,00, 0,00, 0,00, 0,00, 0,00, -0,04, 0,04, 1,02
212, 0,00, 8944,50, 0,00, 0,00, 0,00, 0,00, 0,00, 0,00, -0,04, 0,04, 1,02
213, 0,00, 8946,55, 0,00, 0,00, 0,00, 0,00, 0,00, 0,00, -0,05, 0,04, 1,01
214, 0,00, 8927,89, 0,00, 0,00, 0,00, 0,00, 0,00, 0,00, -0,05, 0,04, 1,01
215, 0,00, 8892,33, 0,00, 0,00, 0,00, 0,00, 0,00, 0,00, -0,05, 0,04, 1,01
216, 0,00, 8906,68, 0,00, 0,00, 0,00, 0,00, 0,00, 0,00, -0,05, 0,04, 1,01
217, 0,00, 8952,88, 0,00, 0,00, 0,00, 0,00, 0,00, 0,00, -0,05, 0,04, 1,01
218, 0,00, 8956,37, 0,00, 0,00, 0,00, 0,00, 0,00, 0,00, -0,04, 0,04, 1,01
219, 0,00, 8939,67, 0,00, 0,00, 0,00, 0,00, 0,00, 0,00, -0,04, 0,04, 1,01
220, 0,00, 8905,36, 0,00, 0,00, 0,00, 0,00, 0,00, 0,00, -0,04, 0,04, 1,01
221, 0,00, 8903,84, 0,00, 0,00, 0,00, 0,00, 0,00, 0,00, -0,04, 0,04, 1,01
222, 0,00, 8933,12, 0,00, 0,00, 0,00, 0,00, 0,00, 0,00, -0,04, 0,04, 1,01
223, 0,00, 8941,32, 0,00, 0,00, 0,00, 0,00, 0,00, 0,00, -0,03, 0,04, 1,02
224, 0,00, 8934,48, 0,00, 0,00, 0,00, 0,00, 0,00, 0,00, -0,03, 0,04, 1,02
225, 0,00, 8900,82, 0,00, 0,00, 0,00, 0,00, 0,00, 0,00, -0,03, 0,04, 1,02
226, 0,00, 8902,43, 0,00, 0,00, 0,00, 0,00, 0,00, 0,00, -0,03, 0,04, 1,02
227, 0,00, 8944,70, 0,00, 0,00, 0,00, 0,00, 0,00, 0,00, -0,03, 0,04, 1,02
228, 0,00, 8949,19, 0,00, 0,00, 0,00, 0,00, 0,00, 0,00, -0,03, 0,05, 1,02
229, 0,00, 8924,25, 0,00, 0,00, 0,00, 0,00, 0,00, 0,00, -0,03, 0,05, 1,02
230, 0,00, 8888,44, 0,00, 0,00, 0,00, 0,00, 0,00, 0,00, -0,03, 0,05, 1,02
231, 0,00, 8896,28, 0,00, 0,00, 0,00, 0,00, 0,00, 0,00, -0,03, 0,05, 1,02
232, 0,00, 8935,04, 0,00, 0,00, 0,00, 0,00, 0,00, 0,00, -0,03, 0,05, 1,02
233, 0,00, 8936,83, 0,00, 0,00, 0,00, 0,00, 0,00, 0,00, -0,04, 0,05, 1,02
234, 0,00, 8912,89, 0,00, 0,00, 0,00, 0,00, 0,00, 0,00, -0,04, 0,05, 1,02
235, 0,00, 8879,19, 0,00, 0,00, 0,00, 0,00, 0,00, 0,00, -0,04, 0,05, 1,02
236, 0,00, 8883,52, 0,00, 0,00, 0,00, 0,00, 0,00, 0,00, -0,04, 0,05, 1,02
237, 0,00, 8922,62, 0,00, 0,00, 0,00, 0,00, 0,00, 0,00, -0,04, 0,05, 1,02
238, 0,00, 8925,68, 0,00, 0,00, 0,00, 0,00, 0,00, 0,00, -0,05, 0,05, 1,01
239, 0,00, 8908,40, 0,00, 0,00, 0,00, 0,00, 0,00, 0,00, -0,05, 0,05, 1,01
240, 0,00, 8875,72, 0,00, 0,00, 0,00, 0,00, 0,00, 0,00, -0,05, 0,05, 1,01
241, 0,00, 8881,67, 0,00, 0,00, 0,00, 0,00, 0,00, 0,00, -0,05, 0,05, 1,01
242, 0,00, 8923,46, 0,00, 0,00, 0,00, 0,00, 0,00, 0,00, -0,05, 0,05, 1,01
243, 0,00, 8928,36, 0,00, 0,00, 0,00, 0,00, 0,00, 0,00, -0,05, 0,04, 1,02
244, 0,00, 8914,46, 0,00, 0,00, 0,00, 0,00, 0,00, 0,00, -0,05, 0,04, 1,02
245, 0,00, 8887,97, 0,00, 0,00, 0,00, 0,00, 0,00, 0,00, -0,05, 0,04, 1,02
246, 0,00, 8897,29, 0,00, 0,00, 0,00, 0,00, 0,00, 0,00, -0,05, 0,04, 1,02
247, 0,00, 8933,61, 0,00, 0,00, 0,00, 0,00, 0,00, 0,00, -0,05, 0,04, 1,02
248, 0,00, 8934,68, 0,00, 0,00, 0,00, 0,00, 0,00, 0,00, -0,04, 0,05, 1,02
249, 0,00, 8920,56, 0,00, 0,00, 0,00, 0,00, 0,00, 0,00, -0,04, 0,05, 1,02
250, 0,00, 8900,08, 0,00, 0,00, 0,00, 0,00, 0,00, 0,00, -0,04, 0,05, 1,02
251, 0,00, 8906,79, 0,00, 0,00, 0,00, 0,00, 0,00, 0,00, -0,04, 0,05, 1,02
252, 0,00, 8941,28, 0,00, 0,00, 0,00, 0,00, 0,00, 0,00, -0,04, 0,05, 1,02
253, 0,00, 8942,60, 0,00, 0,00, 0,00, 0,00, 0,00, 0,00, -0,04, 0,04, 1,02
254, 0,00, 8924,11, 0,00, 0,00, 0,00, 0,00, 0,00, 0,00, -0,04, 0,04, 1,02
255, 0,00, 8904,69, 0,00, 0,00, 0,00, 0,00, 0,00, 0,00, -0,04, 0,04, 1,02
0, 0,00, 8908,13, 0,00, 0,00, 0,00, 0,00, 0,00, 0,00, -0,04, 0,04, 1,02
1, 0,00, 8927,20, 0,00, 0,00, 0,00, 0,00, 0,00, 0,00, -0,04, 0,04, 1,02
2, 0,00, 8924,36, 0,00, 0,00, 0,00, 0,00, 0,00, 0,00, -0,04, 0,04, 1,01
3, 0,00, 8908,06, 0,00, 0,00, 0,00, 0,00, 0,00, 0,00, -0,04, 0,04, 1,01
4, 0,00, 8878,65, 0,00, 0,00, 0,00, 0,00, 0,00, 0,00, -0,04, 0,04, 1,01
5, 0,00, 8889,36, 0,00, 0,00, 0,00, 0,00, 0,00, 0,00, -0,04, 0,04, 1,01
6, 0,00, 8926,57, 0,00, 0,00, 0,00, 0,00, 0,00, 0,00, -0,04, 0,04, 1,01
7, 0,00, 8929,19, 0,00, 0,00, 0,00, 0,00, 0,00, 0,00, -0,04, 0,05, 1,01
8, 0,00, 8916,78, 0,00, 0,00, 0,00, 0,00, 0,00, 0,00, -0,04, 0,05, 1,01
9, 0,00, 8883,88, 0,00, 0,00, 0,00, 0,00, 0,00, 0,00, -0,04, 0,05, 1,01
10, 0,00, 8879,07, 0,00, 0,00, 0,00, 0,00, 0,00, 0,00, -0,04, 0,05, 1,01
11, 0,00, 8922,30, 0,00, 0,00, 0,00, 0,00, 0,00, 0,00, -0,04, 0,05, 1,01
12, 0,00, 8933,19, 0,00, 0,00, 0,00, 0,00, 0,00, 0,00, -0,04, 0,04, 1,01
13, 0,00, 8918,12, 0,00, 0,00, 0,00, 0,00, 0,00, 0,00, -0,04, 0,04, 1,01
14, 0,00, 8885,44, 0,00, 0,00, 0,00, 0,00, 0,00, 0,00, -0,04, 0,04, 1,01
15, 0,00, 8878,51, 0,00, 0,00, 0,00, 0,00, 0,00, 0,00, -0,04, 0,04, 1,01
16, 0,00, 8914,75, 0,00, 0,00, 0,00, 0,00, 0,00, 0,00, -0,04, 0,04, 1,01
17, 0,00, 8918,64, 0,00, 0,00, 0,00, 0,00, 0,00, 0,00, -0,04, 0,04, 1,01
18, 0,00, 8903,21, 0,00, 0,00, 0,00, 0,00, 0,00, 0,00, -0,04, 0,04, 1,01
19, 0,00, 8884,68, 0,00, 0,00, 0,00, 0,00, 0,00, 0,00, -0,04, 0,04, 1,01
20, 0,00, 8896,35, 0,00, 0,00, 0,00, 0,00, 0,00, 0,00, -0,04, 0,04, 1,01
21, 0,00, 8929,05, 0,00, 0,00, 0,00, 0,00, 0,00, 0,00, -0,04, 0,04, 1,01
22, 0,00, 8931,15, 0,00, 0,00, 0,00, 0,00, 0,00, 0,00, -0,04, 0,04, 1,01
23, 0,00, 8910,25, 0,00, 0,00, 0,00, 0,00, 0,00, 0,00, -0,04, 0,04, 1,01
24, 0,00, 8886,29, 0,00, 0,00, 0,00, 0,00, 0,00, 0,00, -0,04, 0,04, 1,01
25, 0,00, 8885,73, 0,00, 0,00, 0,00, 0,00, 0,00, 0,00, -0,04, 0,04, 1,01
26, 0,00, 8922,91, 0,00, 0,00, 0,00, 0,00, 0,00, 0,00, -0,04, 0,04, 1,01
27, 0,00, 8932,83, 0,00, 0,00, 0,00, 0,00, 0,00, 0,00, -0,04, 0,04, 1,02
28, 0,00, 8915,80, 0,00, 0,00, 0,00, 0,00, 0,00, 0,00, -0,04, 0,04, 1,02
29, 0,00, 8879,68, 0,00, 0,00, 0,00, 0,00, 0,00, 0,00, -0,04, 0,04, 1,02
30, 0,00, 8883,75, 0,00, 0,00, 0,00, 0,00, 0,00, 0,00, -0,04, 0,04, 1,02
31, 0,00, 8927,91, 0,00, 0,00, 0,00, 0,00, 0,00, 0,00, -0,04, 0,04, 1,02
32, 0,00, 8934,68, 0,00, 0,00, 0,00, 0,00, 0,00, 0,00, -0,04, 0,05, 1,02
33, 0,00, 8920,31, 0,00, 0,00, 0,00, 0,00, 0,00, 0,00, -0,04, 0,05, 1,02
34, 0,00, 8893,47, 0,00, 0,00, 0,00, 0,00, 0,00, 0,00, -0,04, 0,05, 1,02
35, 0,00, 8890,61, 0,00, 0,00, 0,00, 0,00, 0,00, 0,00, -0,04, 0,05, 1,02
36, 0,00, 8924,76, 0,00, 0,00, 0,00, 0,00, 0,00, 0,00, -0,04, 0,05, 1,02
37, 0,00, 8927,98, 0,00, 0,00, 0,00, 0,00, 0,00, 0,00, -0,04, 0,04, 1,02
38, 0,00, 8909,52, 0,00, 0,00, 0,00, 0,00, 0,00, 0,00, -0,04, 0,04, 1,02
39, 0,00, 8888,15, 0,00, 0,00, 0,00, 0,00, 0,00, 0,00, -0,04, 0,04, 1,02
40, 0,00, 8894,54, 0,00, 0,00, 0,00, 0,00, 0,00, 0,00, -0,04, 0,04, 1,02
41, 0,00, 8932,11, 0,00, 0,00, 0,00, 0,00, 0,00, 0,00, -0,04, 0,04, 1,02
42, 0,00, 8935,80, 0,00, 0,00, 0,00, 0,00, 0,00, 0,00, -0,05, 0,04, 1,02
43, 0,00, 8919,62, 0,00, 0,00, 0,00, 0,00, 0,00, 0,00, -0,05, 0,04, 1,02
44, 0,00, 8882,76, 0,00, 0,00, 0,00, 0,00, 0,00, 0,00, -0,05, 0,04, 1,02
45, 0,00, 8873,02, 0,00, 0,00, 0,00, 0,00, 0,00, 0,00, -0,05, 0,04, 1,02
46, 0,00, 8920,38, 0,00, 0,00, 0,00, 0,00, 0,00, 0,00, -0,05, 0,04, 1,02
47, 0,00, 8938,86, 0,00, 0,00, 0,00, 0,00, 0,00, 0,00, -0,05, 0,04, 1,02
48, 0,00, 8918,19, 0,00, 0,00, 0,00, 0,00, 0,00, 0,00, -0,05, 0,04, 1,02
49, 0,00, 8882,43, 0,00, 0,00, 0,00, 0,00, 0,00, 0,00, -0,05, 0,04, 1,02
50, 0,00, 8877,75, 0,00, 0,00, 0,00, 0,00, 0,00, 0,00, -0,05, 0,04, 1,02
51, 0,00, 8919,89, 0,00, 0,00, 0,00, 0,00, 0,00, 0,00, -0,05, 0,04, 1,02
52, 0,00, 8930,44, 0,00, 0,00, 0,00, 0,00, 0,00, 0,00, -0,04, 0,04, 1,02
53, 0,00, 8916,69, 0,00, 0,00, 0,00, 0,00, 0,00, 0,00, -0,04, 0,04, 1,02
54, 0,00, 8889,38, 0,00, 0,00, 0,00, 0,00, 0,00, 0,00, -0,04, 0,04, 1,02
55, 0,00, 8885,33, 0,00, 0,00, 0,00, 0,00, 0,00, 0,00, -0,04, 0,04, 1,02
56, 0,00, 8924,00, 0,00, 0,00, 0,00, 0,00, 0,00, 0,00, -0,04, 0,04, 1,02
57, 0,00, 8932,03, 0,00, 0,00, 0,00, 0,00, 0,00, 0,00, -0,04, 0,04, 1,01
58, 0,00, 8918,28, 0,00, 0,00, 0,00, 0,00, 0,00, 0,00, -0,04, 0,04, 1,01
59, 0,00, 8893,83, 0,00, 0,00, 0,00, 0,00, 0,00, 0,00, -0,04, 0,04, 1,01
60, 0,00, 8894,07, 0,00, 0,00, 0,00, 0,00, 0,00, 0,00, -0,04, 0,04, 1,01
61, 0,00, 8922,84, 0,00, 0,00, 0,00, 0,00, 0,00, 0,00, -0,04, 0,04, 1,01
62, 0,00, 8921,97, 0,00, 0,00, 0,00, 0,00, 0,00, 0,00, -0,05, 0,04, 1,02
63, 0,00, 8905,56, 0,00, 0,00, 0,00, 0,00, 0,00, 0,00, -0,05, 0,04, 1,02
64, 0,00, 8882,43, 0,00, 0,00, 0,00, 0,00, 0,00, 0,00, -0,05, 0,04, 1,02
65, 0,00, 8881,69, 0,00, 0,00, 0,00, 0,00, 0,00, 0,00, -0,05, 0,04, 1,02
66, 0,00, 8922,82, 0,00, 0,00, 0,00, 0,00, 0,00, 0,00, -0,05, 0,04, 1,02
67, 0,00, 8932,45, 0,00, 0,00, 0,00, 0,00, 0,00, 0,00, -0,04, 0,05, 1,02
68, 0,00, 8913,54, 0,00, 0,00, 0,00, 0,00, 0,00, 0,00, -0,04, 0,05, 1,02
69, 0,00, 8879,43, 0,00, 0,00, 0,00, 0,00, 0,00, 0,00, -0,04, 0,05, 1,02
70, 0,00, 8875,41, 0,00, 0,00, 0,00, 0,00, 0,00, 0,00, -0,04, 0,05, 1,02
71, 0,00, 8913,47, 0,00, 0,00, 0,00, 0,00, 0,00, 0,00, -0,04, 0,05, 1,02
72, 0,00, 8925,36, 0,00, 0,00, 0,00, 0,00, 0,00, 0,00, -0,04, 0,04, 1,02
73, 0,00, 8913,00, 0,00, 0,00, 0,00, 0,00, 0,00, 0,00, -0,04, 0,04, 1,02
74, 0,00, 8883,81, 0,00, 0,00, 0,00, 0,00, 0,00, 0,00, -0,04, 0,04, 1,02
75, 0,00, 8879,23, 0,00, 0,00, 0,00, 0,00, 0,00, 0,00, -0,04, 0,04, 1,02
76, 0,00, 8926,53, 0,00, 0,00, 0,00, 0,00, 0,00, 0,00, -0,04, 0,04, 1,02
77, 0,00, 8930,15, 0,00, 0,00, 0,00, 0,00, 0,00, 0,00, -0,05, 0,05, 1,02
78, 0,00, 8909,05, 0,00, 0,00, 0,00, 0,00, 0,00, 0,00, -0,05, 0,05, 1,02
79, 0,00, 8881,29, 0,00, 0,00, 0,00, 0,00, 0,00, 0,00, -0,05, 0,05, 1,02
80, 0,00, 8886,47, 0,00, 0,00, 0,00, 0,00, 0,00, 0,00, -0,05, 0,05, 1,02
81, 0,00, 8927,04, 0,00, 0,00, 0,00, 0,00, 0,00, 0,00, -0,05, 0,05, 1,02
82, 0,00, 8929,57, 0,00, 0,00, 0,00, 0,00, 0,00, 0,00, -0,04, 0,04, 1,02
83, 0,00, 8913,36, 0,00, 0,00, 0,00, 0,00, 0,00, 0,00, -0,04, 0,04, 1,02
84, 0,00, 8882,43, 0,00, 0,00, 0,00, 0,00, 0,00, 0,00, -0,04, 0,04, 1,02
85, 0,00, 8868,01, 0,00, 0,00, 0,00, 0,00, 0,00, 0,00, -0,04, 0,04, 1,02
86, 0,00, 8909,85, 0,00, 0,00, 0,00, 0,00, 0,00, 0,00, -0,04, 0,04, 1,02
87, 0,00, 8922,12, 0,00, 0,00, 0,00, 0,00, 0,00, 0,00, -0,04, 0,05, 1,02
88, 0,00, 8908,20, 0,00, 0,00, 0,00, 0,00, 0,00, 0,00, -0,04, 0,05, 1,02
89, 0,00, 8874,38, 0,00, 0,00, 0,00, 0,00, 0,00, 0,00, -0,04, 0,05, 1,02
90, 0,00, 8868,28, 0,00, 0,00, 0,00, 0,00, 0,00, 0,00, -0,04, 0,05, 1,02
91, 0,00, 8912,58, 0,00, 0,00, 0,00, 0,00, 0,00, 0,00, -0,04, 0,05, 1,02
92, 0,00, 8922,12, 0,00, 0,00, 0,00, 0,00, 0,00, 0,00, -0,05, 0,05, 1,02
93, 0,00, 8905,96, 0,00, 0,00, 0,00, 0,00, 0,00, 0,00, -0,05, 0,05, 1,02
94, 0,00, 8875,72, 0,00, 0,00, 0,00, 0,00, 0,00, 0,00, -0,05, 0,05, 1,02
95, 0,00, 8872,99, 0,00, 0,00, 0,00, 0,00, 0,00, 0,00, -0,05, 0,05, 1,02
96, 0,00, 8915,35, 0,00, 0,00, 0,00, 0,00, 0,00, 0,00, -0,05, 0,05, 1,02
97, 0,00, 8926,84, 0,00, 0,00, 0,00, 0,00, 0,00, 0,00, -0,04, 0,04, 1,01
98, 0,00, 8907,17, 0,00, 0,00, 0,00, 0,00, 0,00, 0,00, -0,04, 0,04, 1,01
99, 0,00, 8875,99, 0,00, 0,00, 0,00, 0,00, 0,00, 0,00, -0,04, 0,04, 1,01
100, 0,00, 8866,58, 0,00, 0,00, 0,00, 0,00, 0,00, 0,00, -0,04, 0,04, 1,01
101, 0,00, 8908,85, 0,00, 0,00, 0,00, 0,00, 0,00, 0,00, -0,04, 0,04, 1,01
102, 0,00, 8924,74, 0,00, 0,00, 0,00, 0,00, 0,00, 0,00, -0,05, 0,04, 1,01
103, 0,00, 8917,07, 0,00, 0,00, 0,00, 0,00, 0,00, 0,00, -0,05, 0,04, 1,01
104, 0,00, 8895,50, 0,00, 0,00, 0,00, 0,00, 0,00, 0,00, -0,05, 0,04, 1,01
105, 0,00, 8885,29, 0,00, 0,00, 0,00, 0,00, 0,00, 0,00, -0,05, 0,04, 1,01
106, 0,00, 8916,40, 0,00, 0,00, 0,00, 0,00, 0,00, 0,00, -0,05, 0,04, 1,01
107, 0,00, 8917,27, 0,00, 0,00, 0,00, 0,00, 0,00, 0,00, -0,04, 0,05, 1,01
108, 0,00, 8902,74, 0,00, 0,00, 0,00, 0,00, 0,00, 0,00, -0,04, 0,05, 1,01
109, 0,00, 8883,50, 0,00, 0,00, 0,00, 0,00, 0,00, 0,00, -0,04, 0,05, 1,01
110, 0,00, 8880,44, 0,00, 0,00, 0,00, 0,00, 0,00, 0,00, -0,04, 0,05, 1,01
111, 0,00, 8918,77, 0,00, 0,00, 0,00, 0,00, 0,00, 0,00, -0,04, 0,05, 1,01
112, 0,00, 8927,53, 0,00, 0,00, 0,00, 0,00, 0,00, 0,00, -0,05, 0,04, 1,01
113, 0,00, 8914,88, 0,00, 0,00, 0,00, 0,00, 0,00, 0,00, -0,05, 0,04, 1,01
114, 0,00, 8886,34, 0,00, 0,00, 0,00, 0,00, 0,00, 0,00, -0,05, 0,04, 1,01
115, 0,00, 8873,20, 0,00, 0,00, 0,00, 0,00, 0,00, 0,00, -0,05, 0,04, 1,01
116, 0,00, 8909,25, 0,00, 0,00, 0,00, 0,00, 0,00, 0,00, -0,05, 0,04, 1,01
117, 0,00, 8919,75, 0,00, 0,00, 0,00, 0,00, 0,00, 0,00, -0,05, 0,04, 1,02
118, 0,00, 8902,05, 0,00, 0,00, 0,00, 0,00, 0,00, 0,00, -0,05, 0,04, 1,02
119, 0,00, 8876,73, 0,00, 0,00, 0,00, 0,00, 0,00, 0,00, -0,05, 0,04, 1,02
120, 0,00, 8869,57, 0,00, 0,00, 0,00, 0,00, 0,00, 0,00, -0,05, 0,04, 1,02
121, 0,00, 8905,23, 0,00, 0,00, 0,00, 0,00, 0,00, 0,00, -0,05, 0,04, 1,02
122, 0,00, 8913,90, 0,00, 0,00, 0,00, 0,00, 0,00, 0,00, -0,05, 0,05, 1,01
123, 0,00, 8899,68, 0,00, 0,00, 0,00, 0,00, 0,00, 0,00, -0,05, 0,05, 1,01
124, 0,00, 8869,46, 0,00, 0,00, 0,00, 0,00, 0,00, 0,00, -0,05, 0,05, 1,01
125, 0,00, 8862,98, 0,00, 0,00, 0,00, 0,00, 0,00, 0,00, -0,05, 0,05, 1,01
126, 0,00, 8904,11, 0,00, 0,00, 0,00, 0,00, 0,00, 0,00, -0,05, 0,05, 1,01
127, 0,00, 8919,66, 0,00, 0,00, 0,00, 0,00, 0,00, 0,00, -0,05, 0,05, 1,01
128, 0,00, 8905,96, 0,00, 0,00, 0,00, 0,00, 0,00, 0,00, -0,05, 0,05, 1,01
129, 0,00, 8874,78, 0,00, 0,00, 0,00, 0,00, 0,00, 0,00, -0,05, 0,05, 1,01
130, 0,00, 8872,88, 0,00, 0,00, 0,00, 0,00, 0,00, 0,00, -0,05, 0,05, 1,01
131, 0,00, 8908,65, 0,00, 0,00, 0,00, 0,00, 0,00, 0,00, -0,05, 0,05, 1,01
132, 0,00, 8920,94, 0,00, 0,00, 0,00, 0,00, 0,00, 0,00, -0,05, 0,05, 1,02
133, 0,00, 8900,31, 0,00, 0,00, 0,00, 0,00, 0,00, 0,00, -0,05, 0,05, 1,02
134, 0,00, 8864,86, 0,00, 0,00, 0,00, 0,00, 0,00, 0,00, -0,05, 0,05, 1,02
135, 0,00, 8858,80, 0,00, 0,00, 0,00, 0,00, 0,00, 0,00, -0,05, 0,05, 1,02
136, 0,00, 8910,48, 0,00, 0,00, 0,00, 0,00, 0,00, 0,00, -0,05, 0,05, 1,02
137, 0,00, 8927,91, 0,00, 0,00, 0,00, 0,00, 0,00, 0,00, -0,05, 0,05, 1,02
138, 0,00, 8903,95, 0,00, 0,00, 0,00, 0,00, 0,00, 0,00, -0,05, 0,05, 1,02
139, 0,00, 8869,75, 0,00, 0,00, 0,00, 0,00, 0,00, 0,00, -0,05, 0,05, 1,02
140, 0,00, 8864,05, 0,00, 0,00, 0,00, 0,00, 0,00, 0,00, -0,05, 0,05, 1,02
141, 0,00, 8902,77, 0,00, 0,00, 0,00, 0,00, 0,00, 0,00, -0,05, 0,05, 1,02
142, 0,00, 8914,48, 0,00, 0,00, 0,00, 0,00, 0,00, 0,00, -0,05, 0,05, 1,02
143, 0,00, 8900,08, 0,00, 0,00, 0,00, 0,00, 0,00, 0,00, -0,05, 0,05, 1,02
144, 0,00, 8878,40, 0,00, 0,00, 0,00, 0,00, 0,00, 0,00, -0,05, 0,05, 1,02
145, 0,00, 8868,81, 0,00, 0,00, 0,00, 0,00, 0,00, 0,00, -0,05, 0,05, 1,02
146, 0,00, 8903,01, 0,00, 0,00, 0,00, 0,00, 0,00, 0,00, -0,05, 0,05, 1,02
147, 0,00, 8915,78, 0,00, 0,00, 0,00, 0,00, 0,00, 0,00, -0,05, 0,05, 1,02
148, 0,00, 8906,52, 0,00, 0,00, 0,00, 0,00, 0,00, 0,00, -0,05, 0,05, 1,02
149, 0,00, 8881,42, 0,00, 0,00, 0,00, 0,00, 0,00, 0,00, -0,05, 0,05, 1,02
150, 0,00, 8867,90, 0,00, 0,00, 0,00, 0,00, 0,00, 0,00, -0,05, 0,05, 1,02
151, 0,00, 8906,61, 0,00, 0,00, 0,00, 0,00, 0,00, 0,00, -0,05, 0,05, 1,02
152, 0,00, 8923,69, 0,00, 0,00, 0,00, 0,00, 0,00, 0,00, -0,05, 0,05, 1,02
153, 0,00, 8911,15, 0,00, 0,00, 0,00, 0,00, 0,00, 0,00, -0,05, 0,05, 1,02
154, 0,00, 8873,96, 0,00, 0,00, 0,00, 0,00, 0,00, 0,00, -0,05, 0,05, 1,02
155, 0,00, 8860,86, 0,00, 0,00, 0,00, 0,00, 0,00, 0,00, -0,05, 0,05, 1,02
156, 0,00, 8893,71, 0,00, 0,00, 0,00, 0,00, 0,00, 0,00, -0,05, 0,05, 1,02
157, 0,00, 8904,62, 0,00, 0,00, 0,00, 0,00, 0,00, 0,00, -0,04, 0,05, 1,01
158, 0,00, 8894,41, 0,00, 0,00, 0,00, 0,00, 0,00, 0,00, -0,04, 0,05, 1,01
159, 0,00, 8867,72, 0,00, 0,00, 0,00, 0,00, 0,00, 0,00, -0,04, 0,05, 1,01
160, 0,00, 8858,24, 0,00, 0,00, 0,00, 0,00, 0,00, 0,00, -0,04, 0,05, 1,01
161, 0,00, 8904,42, 0,00, 0,00, 0,00, 0,00, 0,00, 0,00, -0,04, 0,05, 1,01
162, 0,00, 8920,65, 0,00, 0,00, 0,00, 0,00, 0,00, 0,00, -0,04, 0,05, 1,01
163, 0,00, 8901,54, 0,00, 0,00, 0,00, 0,00, 0,00, 0,00, -0,04, 0,05, 1,02
164, 0,00, 8869,08, 0,00, 0,00, 0,00, 0,00, 0,00, 0,00, -0,04, 0,05, 1,02
165, 0,00, 8856,66, 0,00, 0,00, 0,00, 0,00, 0,00, 0,00, -0,04, 0,05, 1,02
166, 0,00, 8897,11, 0,00, 0,00, 0,00, 0,00, 0,00, 0,00, -0,04, 0,05, 1,02
167, 0,00, 8912,06, 0,00, 0,00, 0,00, 0,00, 0,00, 0,00, -0,04, 0,05, 1,02
168, 0,00, 8896,96, 0,00, 0,00, 0,00, 0,00, 0,00, 0,00, -0,04, 0,04, 1,02
169, 0,00, 8868,57, 0,00, 0,00, 0,00, 0,00, 0,00, 0,00, -0,04, 0,04, 1,02
170, 0,00, 8852,32, 0,00, 0,00, 0,00, 0,00, 0,00, 0,00, -0,04, 0,04, 1,02
171, 0,00, 8890,47, 0,00, 0,00, 0,00, 0,00, 0,00, 0,00, -0,04, 0,04, 1,02
172, 0,00, 8911,26, 0,00, 0,00, 0,00, 0,00, 0,00, 0,00, -0,04, 0,04, 1,02
173, 0,00, 8903,39, 0,00, 0,00, 0,00, 0,00, 0,00, 0,00, -0,05, 0,05, 1,02
174, 0,00, 8878,98, 0,00, 0,00, 0,00, 0,00, 0,00, 0,00, -0,05, 0,05, 1,02
175, 0,00, 8863,49, 0,00, 0,00, 0,00, 0,00, 0,00, 0,00, -0,05, 0,05, 1,02
176, 0,00, 8904,40, 0,00, 0,00, 0,00, 0,00, 0,00, 0,00, -0,05, 0,05, 1,02
177, 0,00, 8919,49, 0,00, 0,00, 0,00, 0,00, 0,00, 0,00, -0,05, 0,05, 1,02
178, 0,00, 8897,11, 0,00, 0,00, 0,00, 0,00, 0,00, 0,00, -0,05, 0,05, 1,02
179, 0,00, 8867,38, 0,00, 0,00, 0,00, 0,00, 0,00, 0,00, -0,05, 0,05, 1,02
180, 0,00, 8858,20, 0,00, 0,00, 0,00, 0,00, 0,00, 0,00, -0,05, 0,05, 1,02
181, 0,00, 8898,41, 0,00, 0,00, 0,00, 0,00, 0,00, 0,00, -0,05, 0,05, 1,02
182, 0,00, 8914,19, 0,00, 0,00, 0,00, 0,00, 0,00, 0,00, -0,05, 0,05, 1,02
183, 0,00, 8906,25, 0,00, 0,00, 0,00, 0,00, 0,00, 0,00, -0,05, 0,04, 1,02
184, 0,00, 8877,64, 0,00, 0,00, 0,00, 0,00, 0,00, 0,00, -0,05, 0,04, 1,02
185, 0,00, 8857,84, 0,00, 0,00, 0,00, 0,00, 0,00, 0,00, -0,05, 0,04, 1,02
186, 0,00, 8891,48, 0,00, 0,00, 0,00, 0,00, 0,00, 0,00, -0,05, 0,04, 1,02
187, 0,00, 8915,19, 0,00, 0,00, 0,00, 0,00, 0,00, 0,00, -0,05, 0,04, 1,02
188, 0,00, 8905,11, 0,00, 0,00, 0,00, 0,00, 0,00, 0,00, -0,05, 0,04, 1,02
189, 0,00, 8873,67, 0,00, 0,00, 0,00, 0,00, 0,00, 0,00, -0,05, 0,04, 1,02
190, 0,00, 8854,60, 0,00, 0,00, 0,00, 0,00, 0,00, 0,00, -0,05, 0,04, 1,02
191, 0,00, 8889,76, 0,00, 0,00, 0,00, 0,00, 0,00, 0,00, -0,05, 0,04, 1,02
192, 0,00, 8908,35, 0,00, 0,00, 0,00, 0,00, 0,00, 0,00, -0,05, 0,04, 1,02
193, 0,00, 8901,05, 0,00, 0,00, 0,00, 0,00, 0,00, 0,00, -0,04, 0,05, 1,01
194, 0,00, 8875,63, 0,00, 0,00, 0,00, 0,00, 0,00, 0,00, -0,04, 0,05, 1,01
195, 0,00, 8856,12, 0,00, 0,00, 0,00, 0,00, 0,00, 0,00, -0,04, 0,05, 1,01
196, 0,00, 8886,94, 0,00, 0,00, 0,00, 0,00, 0,00, 0,00, -0,04, 0,05, 1,01
197, 0,00, 8910,43, 0,00, 0,00, 0,00, 0,00, 0,00, 0,00, -0,04, 0,05, 1,01
198, 0,00, 8901,36, 0,00, 0,00, 0,00, 0,00, 0,00, 0,00, -0,04, 0,05, 1,01
199, 0,00, 8875,39, 0,00, 0,00, 0,00, 0,00, 0,00, 0,00, -0,04, 0,05, 1,01
200, 0,00, 8862,85, 0,00, 0,00, 0,00, 0,00, 0,00, 0,00, -0,04, 0,05, 1,01
201, 0,00, 8899,88, 0,00, 0,00, 0,00, 0,00, 0,00, 0,00, -0,04, 0,05, 1,01
202, 0,00, 8917,29, 0,00, 0,00, 0,00, 0,00, 0,00, 0,00, -0,04, 0,05, 1,01
203, 0,00, 8902,61, 0,00, 0,00, 0,00, 0,00, 0,00, 0,00, -0,04, 0,04, 1,01
204, 0,00, 8876,08, 0,00, 0,00, 0,00, 0,00, 0,00, 0,00, -0,04, 0,04, 1,01
205, 0,00, 8856,68, 0,00, 0,00, 0,00, 0,00, 0,00, 0,00, -0,04, 0,04, 1,01
206, 0,00, 8893,83, 0,00, 0,00, 0,00, 0,00, 0,00, 0,00, -0,04, 0,04, 1,01
207, 0,00, 8919,22, 0,00, 0,00, 0,00, 0,00, 0,00, 0,00, -0,04, 0,04, 1,01
208, 0,00, 8908,35, 0,00, 0,00, 0,00, 0,00, 0,00, 0,00, -0,05, 0,04, 1,02
209, 0,00, 8879,45, 0,00, 0,00, 0,00, 0,00, 0,00, 0,00, -0,05, 0,04, 1,02
210, 0,00, 8857,08, 0,00, 0,00, 0,00, 0,00, 0,00, 0,00, -0,05, 0,04, 1,02
211, 0,00, 8892,22, 0,00, 0,00, 0,00, 0,00, 0,00, 0,00, -0,05, 0,04, 1,02
212, 0,00, 8906,83, 0,00, 0,00, 0,00, 0,00, 0,00, 0,00, -0,05, 0,04, 1,02
213, 0,00, 8893,56, 0,00, 0,00, 0,00, 0,00, 0,00, 0,00, -0,05, 0,05, 1,02
214, 0,00, 8874,22, 0,00, 0,00, 0,00, 0,00, 0,00, 0,00, -0,05, 0,05, 1,02
215, 0,00, 8863,56, 0,00, 0,00, 0,00, 0,00, 0,00, 0,00, -0,05, 0,05, 1,02
216, 0,00, 8897,78, 0,00, 0,00, 0,00, 0,00, 0,00, 0,00, -0,05, 0,05, 1,02
217, 0,00, 8915,91, 0,00, 0,00, 0,00, 0,00, 0,00, 0,00, -0,05, 0,05, 1,02
218, 0,00, 8906,34, 0,00, 0,00, 0,00, 0,00, 0,00, 0,00, -0,04, 0,05, 1,02
219, 0,00, 8863,90, 0,00, 0,00, 0,00, 0,00, 0,00, 0,00, -0,04, 0,05, 1,02
220, 0,00, 8830,57, 0,00, 0,00, 0,00, 0,00, 0,00, 0,00, -0,04, 0,05, 1,02
221, 0,00, 8867,70, 0,00, 0,00, 0,00, 0,00, 0,00, 0,00, -0,04, 0,05, 1,02
222, 0,00, 8893,27, 0,00, 0,00, 0,00, 0,00, 0,00, 0,00, -0,04, 0,05, 1,02
223, 0,00, 8881,49, 0,00, 0,00, 0,00, 0,00, 0,00, 0,00, -0,04, 0,04, 1,01
224, 0,00, 8855,49, 0,00, 0,00, 0,00, 0,00, 0,00, 0,00, -0,04, 0,04, 1,01
225, 0,00, 8839,76, 0,00, 0,00, 0,00, 0,00, 0,00, 0,00, -0,04, 0,04, 1,01
226, 0,00, 8883,05, 0,00, 0,00, 0,00, 0,00, 0,00, 0,00, -0,04, 0,04, 1,01
227, 0,00, 8906,23, 0,00, 0,00, 0,00, 0,00, 0,00, 0,00, -0,04, 0,04, 1,01
228, 0,00, 8887,46, 0,00, 0,00, 0,00, 0,00, 0,00, 0,00, -0,04, 0,04, 1,01
229, 0,00, 8854,55, 0,00, 0,00, 0,00, 0,00, 0,00, 0,00, -0,04, 0,04, 1,01
230, 0,00, 8831,73, 0,00, 0,00, 0,00, 0,00, 0,00, 0,00, -0,04, 0,04, 1,01
231, 0,00, 8868,61, 0,00, 0,00, 0,00, 0,00, 0,00, 0,00, -0,04, 0,04, 1,01
232, 0,00, 8897,54, 0,00, 0,00, 0,00, 0,00, 0,00, 0,00, -0,04, 0,04, 1,01
233, 0,00, 8890,00, 0,00, 0,00, 0,00, 0,00, 0,00, 0,00, -0,04, 0,05, 1,02
234, 0,00, 8867,14, 0,00, 0,00, 0,00, 0,00, 0,00, 0,00, -0,04, 0,05, 1,02
235, 0,00, 8853,26, 0,00, 0,00, 0,00, 0,00, 0,00, 0,00, -0,04, 0,05, 1,02
236, 0,00, 8888,28, 0,00, 0,00, 0,00, 0,00, 0,00, 0,00, -0,04, 0,05, 1,02
237, 0,00, 8903,19, 0,00, 0,00, 0,00, 0,00, 0,00, 0,00, -0,04, 0,05, 1,02
238, 0,00, 8892,66, 0,00, 0,00, 0,00, 0,00, 0,00, 0,00, -0,04, 0,04, 1,01
239, 0,00, 8869,89, 0,00, 0,00, 0,00, 0,00, 0,00, 0,00, -0,04, 0,04, 1,01
240, 0,00, 8844,83, 0,00, 0,00, 0,00, 0,00, 0,00, 0,00, -0,04, 0,04, 1,01
241, 0,00, 8872,26, 0,00, 0,00, 0,00, 0,00, 0,00, 0,00, -0,04, 0,04, 1,01
242, 0,00, 8894,21, 0,00, 0,00, 0,00, 0,00, 0,00, 0,00, -0,04, 0,04, 1,01
243, 0,00, 8887,21, 0,00, 0,00, 0,00, 0,00, 0,00, 0,00, -0,04, 0,05, 1,01
244, 0,00, 8863,25, 0,00, 0,00, 0,00, 0,00, 0,00, 0,00, -0,04, 0,05, 1,01
245, 0,00, 8849,32, 0,00, 0,00, 0,00, 0,00, 0,00, 0,00, -0,04, 0,05, 1,01
246, 0,00, 8882,23, 0,00, 0,00, 0,00, 0,00, 0,00, 0,00, -0,04, 0,05, 1,01
247, 0,00, 8902,66, 0,00, 0,00, 0,00, 0,00, 0,00, 0,00, -0,04, 0,05, 1,01
248, 0,00, 8884,28, 0,00, 0,00, 0,00, 0,00, 0,00, 0,00, -0,05, 0,05, 1,01
249, 0,00, 8855,05, 0,00, 0,00, 0,00, 0,00, 0,00, 0,00, -0,05, 0,05, 1,01
250, 0,00, 8836,49, 0,00, 0,00, 0,00, 0,00, 0,00, 0,00, -0,05, 0,05, 1,01
251, 0,00, 8868,28, 0,00, 0,00, 0,00, 0,00, 0,00, 0,00, -0,05, 0,05, 1,01
252, 0,00, 8892,55, 0,00, 0,00, 0,00, 0,00, 0,00, 0,00, -0,05, 0,05, 1,01
253, 0,00, 8889,31, 0,00, 0,00, 0,00, 0,00, 0,00, 0,00, -0,05, 0,04, 1,02
254, 0,00, 8862,04, 0,00, 0,00, 0,00, 0,00, 0,00, 0,00, -0,05, 0,04, 1,02
255, 0,00, 8835,00, 0,00, 0,00, 0,00, 0,00, 0,00, 0,00, -0,05, 0,04, 1,02
0, 0,00, 8867,90, 0,00, 0,00, 0,00, 0,00, 0,00, 0,00, -0,05, 0,04, 1,02
1, 0,00, 8891,99, 0,00, 0,00, 0,00, 0,00, 0,00, 0,00, -0,05, 0,04, 1,02
2, 0,00, 8884,66, 0,00, 0,00, 0,00, 0,00, 0,00, 0,00, -0,05, 0,05, 1,01
3, 0,00, 8865,44, 0,00, 0,00, 0,00, 0,00, 0,00, 0,00, -0,05, 0,05, 1,01
4, 0,00, 8843,94, 0,00, 0,00, 0,00, 0,00, 0,00, 0,00, -0,05, 0,05, 1,01
5, 0,00, 8874,33, 0,00, 0,00, 0,00, 0,00, 0,00, 0,00, -0,05, 0,05, 1,01
6, 0,00, 8898,94, 0,00, 0,00, 0,00, 0,00, 0,00, 0,00, -0,05, 0,05, 1,01
7, 0,00, 8889,76, 0,00, 0,00, 0,00, 0,00, 0,00, 0,00, -0,05, 0,04, 1,02
8, 0,00, 8866,80, 0,00, 0,00, 0,00, 0,00, 0,00, 0,00, -0,05, 0,04, 1,02
9, 0,00, 8848,45, 0,00, 0,00, 0,00, 0,00, 0,00, 0,00, -0,05, 0,04, 1,02
10, 0,00, 8876,84, 0,00, 0,00, 0,00, 0,00, 0,00, 0,00, -0,05, 0,04, 1,02
11, 0,00, 8897,47, 0,00, 0,00, 0,00, 0,00, 0,00, 0,00, -0,05, 0,04, 1,02
12, 0,00, 8887,28, 0,00, 0,00, 0,00, 0,00, 0,00, 0,00, -0,05, 0,04, 1,01
13, 0,00, 8860,79, 0,00, 0,00, 0,00, 0,00, 0,00, 0,00, -0,05, 0,04, 1,01
14, 0,00, 8838,30, 0,00, 0,00, 0,00, 0,00, 0,00, 0,00, -0,05, 0,04, 1,01
15, 0,00, 8868,81, 0,00, 0,00, 0,00, 0,00, 0,00, 0,00, -0,05, 0,04, 1,01
16, 0,00, 8894,38, 0,00, 0,00, 0,00, 0,00, 0,00, 0,00, -0,05, 0,04, 1,01
17, 0,00, 8878,02, 0,00, 0,00, 0,00, 0,00, 0,00, 0,00, -0,05, 0,05, 1,01
18, 0,00, 8856,52, 0,00, 0,00, 0,00, 0,00, 0,00, 0,00, -0,05, 0,05, 1,01
19, 0,00, 8840,85, 0,00, 0,00, 0,00, 0,00, 0,00, 0,00, -0,05, 0,05, 1,01
20, 0,00, 8870,29, 0,00, 0,00, 0,00, 0,00, 0,00, 0,00, -0,05, 0,05, 1,01
21, 0,00, 8892,62, 0,00, 0,00, 0,00, 0,00, 0,00, 0,00, -0,05, 0,05, 1,01
22, 0,00, 8876,48, 0,00, 0,00, 0,00, 0,00, 0,00, 0,00, -0,05, 0,05, 1,01
23, 0,00, 8850,75, 0,00, 0,00, 0,00, 0,00, 0,00, 0,00, -0,05, 0,05, 1,01
24, 0,00, 8837,61, 0,00, 0,00, 0,00, 0,00, 0,00, 0,00, -0,05, 0,05, 1,01
25, 0,00, 8869,10, 0,00, 0,00, 0,00, 0,00, 0,00, 0,00, -0,05, 0,05, 1,01
26, 0,00, 8886,29, 0,00, 0,00, 0,00, 0,00, 0,00, 0,00, -0,05, 0,05, 1,01
27, 0,00, 8872,30, 0,00, 0,00, 0,00, 0,00, 0,00, 0,00, -0,04, 0,05, 1,01
28, 0,00, 8847,74, 0,00, 0,00, 0,00, 0,00, 0,00, 0,00, -0,04, 0,05, 1,01
29, 0,00, 8827,69, 0,00, 0,00, 0,00, 0,00, 0,00, 0,00, -0,04, 0,05, 1,01
30, 0,00, 8864,79, 0,00, 0,00, 0,00, 0,00, 0,00, 0,00, -0,04, 0,05, 1,01
31, 0,00, 8893,56, 0,00, 0,00, 0,00, 0,00, 0,00, 0,00, -0,04, 0,05, 1,01
32, 0,00, 8881,85, 0,00, 0,00, 0,00, 0,00, 0,00, 0,00, -0,04, 0,05, 1,01
33, 0,00, 8860,59, 0,00, 0,00, 0,00, 0,00, 0,00, 0,00, -0,04, 0,05, 1,01
34, 0,00, 8834,84, 0,00, 0,00, 0,00, 0,00, 0,00, 0,00, -0,04, 0,05, 1,01
35, 0,00, 8862,91, 0,00, 0,00, 0,00, 0,00, 0,00, 0,00, -0,04, 0,05, 1,01
36, 0,00, 8892,55, 0,00, 0,00, 0,00, 0,00, 0,00, 0,00, -0,04, 0,05, 1,01
37, 0,00, 8879,92, 0,00, 0,00, 0,00, 0,00, 0,00, 0,00, -0,04, 0,05, 1,01
38, 0,00, 8850,42, 0,00, 0,00, 0,00, 0,00, 0,00, 0,00, -0,04, 0,05, 1,01
39, 0,00, 8826,61, 0,00, 0,00, 0,00, 0,00, 0,00, 0,00, -0,04, 0,05, 1,01
40, 0,00, 8862,96, 0,00, 0,00, 0,00, 0,00, 0,00, 0,00, -0,04, 0,05, 1,01
41, 0,00, 8889,65, 0,00, 0,00, 0,00, 0,00, 0,00, 0,00, -0,04, 0,05, 1,01
42, 0,00, 8875,25, 0,00, 0,00, 0,00, 0,00, 0,00, 0,00, -0,04, 0,05, 1,01
43, 0,00, 8846,98, 0,00, 0,00, 0,00, 0,00, 0,00, 0,00, -0,04, 0,05, 1,01
44, 0,00, 8819,57, 0,00, 0,00, 0,00, 0,00, 0,00, 0,00, -0,04, 0,05, 1,01
45, 0,00, 8851,27, 0,00, 0,00, 0,00, 0,00, 0,00, 0,00, -0,04, 0,05, 1,01
46, 0,00, 8885,33, 0,00, 0,00, 0,00, 0,00, 0,00, 0,00, -0,04, 0,05, 1,01
47, 0,00, 8879,41, 0,00, 0,00, 0,00, 0,00, 0,00, 0,00, -0,04, 0,05, 1,01
48, 0,00, 8855,87, 0,00, 0,00, 0,00, 0,00, 0,00, 0,00, -0,04, 0,05, 1,01
49, 0,00, 8830,48, 0,00, 0,00, 0,00, 0,00, 0,00, 0,00, -0,04, 0,05, 1,01
50, 0,00, 8857,68, 0,00, 0,00, 0,00, 0,00, 0,00, 0,00, -0,04, 0,05, 1,01
51, 0,00, 8888,35, 0,00, 0,00, 0,00, 0,00, 0,00, 0,00, -0,04, 0,05, 1,01
52, 0,00, 8879,30, 0,00, 0,00, 0,00, 0,00, 0,00, 0,00, -0,04, 0,05, 1,02
53, 0,00, 8850,35, 0,00, 0,00, 0,00, 0,00, 0,00, 0,00, -0,04, 0,05, 1,02
54, 0,00, 8822,70, 0,00, 0,00, 0,00, 0,00, 0,00, 0,00, -0,04, 0,05, 1,02
55, 0,00, 8858,00, 0,00, 0,00, 0,00, 0,00, 0,00, 0,00, -0,04, 0,05, 1,02
56, 0,00, 8886,14, 0,00, 0,00, 0,00, 0,00, 0,00, 0,00, -0,04, 0,05, 1,02
57, 0,00, 8880,46, 0,00, 0,00, 0,00, 0,00, 0,00, 0,00, -0,04, 0,05, 1,02
58, 0,00, 8855,58, 0,00, 0,00, 0,00, 0,00, 0,00, 0,00, -0,04, 0,05, 1,02
59, 0,00, 8823,69, 0,00, 0,00, 0,00, 0,00, 0,00, 0,00, -0,04, 0,05, 1,02
60, 0,00, 8855,60, 0,00, 0,00, 0,00, 0,00, 0,00, 0,00, -0,04, 0,05, 1,02
61, 0,00, 8883,03, 0,00, 0,00, 0,00, 0,00, 0,00, 0,00, -0,04, 0,05, 1,02
62, 0,00, 8875,34, 0,00, 0,00, 0,00, 0,00, 0,00, 0,00, -0,04, 0,05, 1,02
63, 0,00, 8846,95, 0,00, 0,00, 0,00, 0,00, 0,00, 0,00, -0,04, 0,05, 1,02
64, 0,00, 8820,69, 0,00, 0,00, 0,00, 0,00, 0,00, 0,00, -0,04, 0,05, 1,02
65, 0,00, 8854,24, 0,00, 0,00, 0,00, 0,00, 0,00, 0,00, -0,04, 0,05, 1,02
66, 0,00, 8881,26, 0,00, 0,00, 0,00, 0,00, 0,00, 0,00, -0,04, 0,05, 1,02
67, 0,00, 8869,87, 0,00, 0,00, 0,00, 0,00, 0,00, 0,00, -0,04, 0,05, 1,01
68, 0,00, 8850,04, 0,00, 0,00, 0,00, 0,00, 0,00, 0,00, -0,04, 0,05, 1,01
69, 0,00, 8825,68, 0,00, 0,00, 0,00, 0,00, 0,00, 0,00, -0,04, 0,05, 1,01
70, 0,00, 8851,04, 0,00, 0,00, 0,00, 0,00, 0,00, 0,00, -0,04, 0,05, 1,01
71, 0,00, 8876,28, 0,00, 0,00, 0,00, 0,00, 0,00, 0,00, -0,04, 0,05, 1,01
72, 0,00, 8869,73, 0,00, 0,00, 0,00, 0,00, 0,00, 0,00, -0,05, 0,05, 1,01
73, 0,00, 8846,73, 0,00, 0,00, 0,00, 0,00, 0,00, 0,00, -0,05, 0,05, 1,01
74, 0,00, 8818,30, 0,00, 0,00, 0,00, 0,00, 0,00, 0,00, -0,05, 0,05, 1,01
75, 0,00, 8844,74, 0,00, 0,00, 0,00, 0,00, 0,00, 0,00, -0,05, 0,05, 1,01
76, 0,00, 8876,97, 0,00, 0,00, 0,00, 0,00, 0,00, 0,00, -0,05, 0,05, 1,01
77, 0,00, 8872,44, 0,00, 0,00, 0,00, 0,00, 0,00, 0,00, -0,04, 0,04, 1,01
78, 0,00, 8854,82, 0,00, 0,00, 0,00, 0,00, 0,00, 0,00, -0,04, 0,04, 1,01
79, 0,00, 8833,03, 0,00, 0,00, 0,00, 0,00, 0,00, 0,00, -0,04, 0,04, 1,01
80, 0,00, 8858,51, 0,00, 0,00, 0,00, 0,00, 0,00, 0,00, -0,04, 0,04, 1,01
81, 0,00, 8893,33, 0,00, 0,00, 0,00, 0,00, 0,00, 0,00, -0,04, 0,04, 1,01
82, 0,00, 8881,62, 0,00, 0,00, 0,00, 0,00, 0,00, 0,00, -0,04, 0,04, 1,02
83, 0,00, 8848,81, 0,00, 0,00, 0,00, 0,00, 0,00, 0,00, -0,04, 0,04, 1,02
84, 0,00, 8813,74, 0,00, 0,00, 0,00, 0,00, 0,00, 0,00, -0,04, 0,04, 1,02
85, 0,00, 8843,76, 0,00, 0,00, 0,00, 0,00, 0,00, 0,00, -0,04, 0,04, 1,02
86, 0,00, 8878,36, 0,00, 0,00, 0,00, 0,00, 0,00, 0,00, -0,04, 0,04, 1,02
87, 0,00, 8870,69, 0,00, 0,00, 0,00, 0,00, 0,00, 0,00, -0,05, 0,05, 1,02
88, 0,00, 8852,03, 0,00, 0,00, 0,00, 0,00, 0,00, 0,00, -0,05, 0,05, 1,02
89, 0,00, 8824,29, 0,00, 0,00, 0,00, 0,00, 0,00, 0,00, -0,05, 0,05, 1,02
90, 0,00, 8841,75, 0,00, 0,00, 0,00, 0,00, 0,00, 0,00, -0,05, 0,05, 1,02
91, 0,00, 8872,23, 0,00, 0,00, 0,00, 0,00, 0,00, 0,00, -0,05, 0,05, 1,02
92, 0,00, 8864,14, 0,00, 0,00, 0,00, 0,00, 0,00, 0,00, -0,05, 0,05, 1,01
93, 0,00, 8837,97, 0,00, 0,00, 0,00, 0,00, 0,00, 0,00, -0,05, 0,05, 1,01
94, 0,00, 8811,53, 0,00, 0,00, 0,00, 0,00, 0,00, 0,00, -0,05, 0,05, 1,01
95, 0,00, 8837,50, 0,00, 0,00, 0,00, 0,00, 0,00, 0,00, -0,05, 0,05, 1,01
96, 0,00, 8872,97, 0,00, 0,00, 0,00, 0,00, 0,00, 0,00, -0,05, 0,05, 1,01
97, 0,00, 8866,24, 0,00, 0,00, 0,00, 0,00, 0,00, 0,00, -0,05, 0,05, 1,01
98, 0,00, 8839,71, 0,00, 0,00, 0,00, 0,00, 0,00, 0,00, -0,05, 0,05, 1,01
99, 0,00, 8814,30, 0,00, 0,00, 0,00, 0,00, 0,00, 0,00, -0,05, 0,05, 1,01
100, 0,00, 8842,98, 0,00, 0,00, 0,00, 0,00, 0,00, 0,00, -0,05, 0,05, 1,01
101, 0,00, 8871,54, 0,00, 0,00, 0,00, 0,00, 0,00, 0,00, -0,05, 0,05, 1,01
102, 0,00, 8863,83, 0,00, 0,00, 0,00, 0,00, 0,00, 0,00, -0,05, 0,05, 1,01
103, 0,00, 8844,14, 0,00, 0,00, 0,00, 0,00, 0,00, 0,00, -0,05, 0,05, 1,01
104, 0,00, 8818,32, 0,00, 0,00, 0,00, 0,00, 0,00, 0,00, -0,05, 0,05, 1,01
105, 0,00, 8843,49, 0,00, 0,00, 0,00, 0,00, 0,00, 0,00, -0,05, 0,05, 1,01
106, 0,00, 8870,85, 0,00, 0,00, 0,00, 0,00, 0,00, 0,00, -0,05, 0,05, 1,01
107, 0,00, 8860,01, 0,00, 0,00, 0,00, 0,00, 0,00, 0,00, -0,04, 0,05, 1,00
108, 0,00, 8832,92, 0,00, 0,00, 0,00, 0,00, 0,00, 0,00, -0,04, 0,05, 1,00
109, 0,00, 8812,58, 0,00, 0,00, 0,00, 0,00, 0,00, 0,00, -0,04, 0,05, 1,00
110, 0,00, 8845,23, 0,00, 0,00, 0,00, 0,00, 0,00, 0,00, -0,04, 0,05, 1,00
111, 0,00, 8876,03, 0,00, 0,00, 0,00, 0,00, 0,00, 0,00, -0,04, 0,05, 1,00
112, 0,00, 8859,43, 0,00, 0,00, 0,00, 0,00, 0,00, 0,00, -0,04, 0,05, 1,00
113, 0,00, 8826,41, 0,00, 0,00, 0,00, 0,00, 0,00, 0,00, -0,04, 0,05, 1,00
114, 0,00, 8801,94, 0,00, 0,00, 0,00, 0,00, 0,00, 0,00, -0,04, 0,05, 1,00
115, 0,00, 8830,10, 0,00, 0,00, 0,00, 0,00, 0,00, 0,00, -0,04, 0,05, 1,00
116, 0,00, 8862,42, 0,00, 0,00, 0,00, 0,00, 0,00, 0,00, -0,04, 0,05, 1,00
117, 0,00, 8857,71, 0,00, 0,00, 0,00, 0,00, 0,00, 0,00, -0,04, 0,04, 1,01
118, 0,00, 8838,04, 0,00, 0,00, 0,00, 0,00, 0,00, 0,00, -0,04, 0,04, 1,01
119, 0,00, 8808,29, 0,00, 0,00, 0,00, 0,00, 0,00, 0,00, -0,04, 0,04, 1,01
120, 0,00, 8833,34, 0,00, 0,00, 0,00, 0,00, 0,00, 0,00, -0,04, 0,04, 1,01
121, 0,00, 8863,20, 0,00, 0,00, 0,00, 0,00, 0,00, 0,00, -0,04, 0,04, 1,01
122, 0,00, 8854,40, 0,00, 0,00, 0,00, 0,00, 0,00, 0,00, -0,04, 0,05, 1,01
123, 0,00, 8833,57, 0,00, 0,00, 0,00, 0,00, 0,00, 0,00, -0,04, 0,05, 1,01
124, 0,00, 8807,28, 0,00, 0,00, 0,00, 0,00, 0,00, 0,00, -0,04, 0,05, 1,01
125, 0,00, 8829,05, 0,00, 0,00, 0,00, 0,00, 0,00, 0,00, -0,04, 0,05, 1,01
126, 0,00, 8865,77, 0,00, 0,00, 0,00, 0,00, 0,00, 0,00, -0,04, 0,05, 1,01
127, 0,00, 8861,44, 0,00, 0,00, 0,00, 0,00, 0,00, 0,00, -0,04, 0,05, 1,01
128, 0,00, 8834,71, 0,00, 0,00, 0,00, 0,00, 0,00, 0,00, -0,04, 0,05, 1,01
129, 0,00, 8806,56, 0,00, 0,00, 0,00, 0,00, 0,00, 0,00, -0,04, 0,05, 1,01
130, 0,00, 8832,65, 0,00, 0,00, 0,00, 0,00, 0,00, 0,00, -0,04, 0,05, 1,01
131, 0,00, 8856,36, 0,00, 0,00, 0,00, 0,00, 0,00, 0,00, -0,04, 0,05, 1,01
132, 0,00, 8846,22, 0,00, 0,00, 0,00, 0,00, 0,00, 0,00, -0,04, 0,04, 1,01
133, 0,00, 8829,25, 0,00, 0,00, 0,00, 0,00, 0,00, 0,00, -0,04, 0,04, 1,01
134, 0,00, 8809,36, 0,00, 0,00, 0,00, 0,00, 0,00, 0,00, -0,04, 0,04, 1,01
135, 0,00, 8830,03, 0,00, 0,00, 0,00, 0,00, 0,00, 0,00, -0,04, 0,04, 1,01
136, 0,00, 8864,95, 0,00, 0,00, 0,00, 0,00, 0,00, 0,00, -0,04, 0,04, 1,01
137, 0,00, 8863,38, 0,00, 0,00, 0,00, 0,00, 0,00, 0,00, -0,04, 0,04, 1,02
138, 0,00, 8845,26, 0,00, 0,00, 0,00, 0,00, 0,00, 0,00, -0,04, 0,04, 1,02
139, 0,00, 8819,75, 0,00, 0,00, 0,00, 0,00, 0,00, 0,00, -0,04, 0,04, 1,02
140, 0,00, 8831,40, 0,00, 0,00, 0,00, 0,00, 0,00, 0,00, -0,04, 0,04, 1,02
141, 0,00, 8867,00, 0,00, 0,00, 0,00, 0,00, 0,00, 0,00, -0,04, 0,04, 1,02
142, 0,00, 8864,05, 0,00, 0,00, 0,00, 0,00, 0,00, 0,00, -0,04, 0,04, 1,01
143, 0,00, 8842,06, 0,00, 0,00, 0,00, 0,00, 0,00, 0,00, -0,04, 0,04, 1,01
144, 0,00, 8812,13, 0,00, 0,00, 0,00, 0,00, 0,00, 0,00, -0,04, 0,04, 1,01
145, 0,00, 8837,83, 0,00, 0,00, 0,00, 0,00, 0,00, 0,00, -0,04, 0,04, 1,01
146, 0,00, 8871,61, 0,00, 0,00, 0,00, 0,00, 0,00, 0,00, -0,04, 0,04, 1,01
147, 0,00, 8868,08, 0,00, 0,00, 0,00, 0,00, 0,00, 0,00, -0,04, 0,04, 1,01
148, 0,00, 8848,81, 0,00, 0,00, 0,00, 0,00, 0,00, 0,00, -0,04, 0,04, 1,01
149, 0,00, 8823,31, 0,00, 0,00, 0,00, 0,00, 0,00, 0,00, -0,04, 0,04, 1,01
150, 0,00, 8848,27, 0,00, 0,00, 0,00, 0,00, 0,00, 0,00, -0,04, 0,04, 1,01
151, 0,00, 8880,26, 0,00, 0,00, 0,00, 0,00, 0,00, 0,00, -0,04, 0,04, 1,01
152, 0,00, 8870,69, 0,00, 0,00, 0,00, 0,00, 0,00, 0,00, -0,04, 0,05, 1,01
153, 0,00, 8851,78, 0,00, 0,00, 0,00, 0,00, 0,00, 0,00, -0,04, 0,05, 1,01
154, 0,00, 8822,50, 0,00, 0,00, 0,00, 0,00, 0,00, 0,00, -0,04, 0,05, 1,01
155, 0,00, 8839,15, 0,00, 0,00, 0,00, 0,00, 0,00, 0,00, -0,04, 0,05, 1,01
156, 0,00, 8871,72, 0,00, 0,00, 0,00, 0,00, 0,00, 0,00, -0,04, 0,05, 1,01
157, 0,00, 8868,79, 0,00, 0,00, 0,00, 0,00, 0,00, 0,00, -0,04, 0,05, 1,01
158, 0,00, 8846,13, 0,00, 0,00, 0,00, 0,00, 0,00, 0,00, -0,04, 0,05, 1,01
159, 0,00, 8813,92, 0,00, 0,00, 0,00, 0,00, 0,00, 0,00, -0,04, 0,05, 1,01
160, 0,00, 8836,54, 0,00, 0,00, 0,00, 0,00, 0,00, 0,00, -0,04, 0,05, 1,01
161, 0,00, 8872,21, 0,00, 0,00, 0,00, 0,00, 0,00, 0,00, -0,04, 0,05, 1,01
162, 0,00, 8861,71, 0,00, 0,00, 0,00, 0,00, 0,00, 0,00, -0,04, 0,05, 1,01
163, 0,00, 8839,29, 0,00, 0,00, 0,00, 0,00, 0,00, 0,00, -0,04, 0,05, 1,02
164, 0,00, 8818,37, 0,00, 0,00, 0,00, 0,00, 0,00, 0,00, -0,04, 0,05, 1,02
165, 0,00, 8834,10, 0,00, 0,00, 0,00, 0,00, 0,00, 0,00, -0,04, 0,05, 1,02
166, 0,00, 8867,70, 0,00, 0,00, 0,00, 0,00, 0,00, 0,00, -0,04, 0,05, 1,02
167, 0,00, 8865,62, 0,00, 0,00, 0,00, 0,00, 0,00, 0,00, -0,04, 0,05, 1,02
168, 0,00, 8848,05, 0,00, 0,00, 0,00, 0,00, 0,00, 0,00, -0,05, 0,04, 1,01
169, 0,00, 8826,50, 0,00, 0,00, 0,00, 0,00, 0,00, 0,00, -0,05, 0,04, 1,01
170, 0,00, 8841,70, 0,00, 0,00, 0,00, 0,00, 0,00, 0,00, -0,05, 0,04, 1,01
171, 0,00, 8872,55, 0,00, 0,00, 0,00, 0,00, 0,00, 0,00, -0,05, 0,04, 1,01
172, 0,00, 8869,24, 0,00, 0,00, 0,00, 0,00, 0,00, 0,00, -0,05, 0,04, 1,01
173, 0,00, 8848,21, 0,00, 0,00, 0,00, 0,00, 0,00, 0,00, -0,05, 0,04, 1,02
174, 0,00, 8819,22, 0,00, 0,00, 0,00, 0,00, 0,00, 0,00, -0,05, 0,04, 1,02
175, 0,00, 8836,83, 0,00, 0,00, 0,00, 0,00, 0,00, 0,00, -0,05, 0,04, 1,02
176, 0,00, 8868,90, 0,00, 0,00, 0,00, 0,00, 0,00, 0,00, -0,05, 0,04, 1,02
177, 0,00, 8859,58, 0,00, 0,00, 0,00, 0,00, 0,00, 0,00, -0,05, 0,04, 1,02
178, 0,00, 8844,03, 0,00, 0,00, 0,00, 0,00, 0,00, 0,00, -0,05, 0,05, 1,02
179, 0,00, 8816,40, 0,00, 0,00, 0,00, 0,00, 0,00, 0,00, -0,05, 0,05, 1,02
180, 0,00, 8836,49, 0,00, 0,00, 0,00, 0,00, 0,00, 0,00, -0,05, 0,05, 1,02
181, 0,00, 8872,30, 0,00, 0,00, 0,00, 0,00, 0,00, 0,00, -0,05, 0,05, 1,02
182, 0,00, 8866,67, 0,00, 0,00, 0,00, 0,00, 0,00, 0,00, -0,05, 0,05, 1,02
183, 0,00, 8845,32, 0,00, 0,00, 0,00, 0,00, 0,00, 0,00, -0,04, 0,05, 1,02
184, 0,00, 8818,46, 0,00, 0,00, 0,00, 0,00, 0,00, 0,00, -0,04, 0,05, 1,02
185, 0,00, 8833,77, 0,00, 0,00, 0,00, 0,00, 0,00, 0,00, -0,04, 0,05, 1,02
186, 0,00, 8868,68, 0,00, 0,00, 0,00, 0,00, 0,00, 0,00, -0,04, 0,05, 1,02
187, 0,00, 8866,15, 0,00, 0,00, 0,00, 0,00, 0,00, 0,00, -0,04, 0,05, 1,02
188, 0,00, 8841,17, 0,00, 0,00, 0,00, 0,00, 0,00, 0,00, -0,04, 0,05, 1,02
189, 0,00, 8806,30, 0,00, 0,00, 0,00, 0,00, 0,00, 0,00, -0,04, 0,05, 1,02
190, 0,00, 8813,00, 0,00, 0,00, 0,00, 0,00, 0,00, 0,00, -0,04, 0,05, 1,02
191, 0,00, 8844,63, 0,00, 0,00, 0,00, 0,00, 0,00, 0,00, -0,04, 0,05, 1,02
192, 0,00, 8835,38, 0,00, 0,00, 0,00, 0,00, 0,00, 0,00, -0,04, 0,05, 1,02
193, 0,00, 8825,99, 0,00, 0,00, 0,00, 0,00, 0,00, 0,00, -0,04, 0,05, 1,02
194, 0,00, 8811,04, 0,00, 0,00, 0,00, 0,00, 0,00, 0,00, -0,04, 0,05, 1,02
195, 0,00, 8831,91, 0,00, 0,00, 0,00, 0,00, 0,00, 0,00, -0,04, 0,05, 1,02
196, 0,00, 8865,55, 0,00, 0,00, 0,00, 0,00, 0,00, 0,00, -0,04, 0,05, 1,02
197, 0,00, 8861,17, 0,00, 0,00, 0,00, 0,00, 0,00, 0,00, -0,04, 0,05, 1,02
198, 0,00, 8844,32, 0,00, 0,00, 0,00, 0,00, 0,00, 0,00, -0,05, 0,04, 1,02
199, 0,00, 8818,46, 0,00, 0,00, 0,00, 0,00, 0,00, 0,00, -0,05, 0,04, 1,02
200, 0,00, 8834,39, 0,00, 0,00, 0,00, 0,00, 0,00, 0,00, -0,05, 0,04, 1,02
201, 0,00, 8871,83, 0,00, 0,00, 0,00, 0,00, 0,00, 0,00, -0,05, 0,04, 1,02
202, 0,00, 8871,27, 0,00, 0,00, 0,00, 0,00, 0,00, 0,00, -0,05, 0,04, 1,02
203, 0,00, 8852,09, 0,00, 0,00, 0,00, 0,00, 0,00, 0,00, -0,04, 0,04, 1,02
204, 0,00, 8825,45, 0,00, 0,00, 0,00, 0,00, 0,00, 0,00, -0,04, 0,04, 1,02
205, 0,00, 8843,27, 0,00, 0,00, 0,00, 0,00, 0,00, 0,00, -0,04, 0,04, 1,02
206, 0,00, 8878,34, 0,00, 0,00, 0,00, 0,00, 0,00, 0,00, -0,04, 0,04, 1,02
207, 0,00, 8871,83, 0,00, 0,00, 0,00, 0,00, 0,00, 0,00, -0,04, 0,04, 1,02
208, 0,00, 8847,36, 0,00, 0,00, 0,00, 0,00, 0,00, 0,00, -0,04, 0,04, 1,01
209, 0,00, 8814,86, 0,00, 0,00, 0,00, 0,00, 0,00, 0,00, -0,04, 0,04, 1,01
210, 0,00, 8837,28, 0,00, 0,00, 0,00, 0,00, 0,00, 0,00, -0,04, 0,04, 1,01
211, 0,00, 8870,76, 0,00, 0,00, 0,00, 0,00, 0,00, 0,00, -0,04, 0,04, 1,01
212, 0,00, 8868,12, 0,00, 0,00, 0,00, 0,00, 0,00, 0,00, -0,04, 0,04, 1,01
213, 0,00, 8852,05, 0,00, 0,00, 0,00, 0,00, 0,00, 0,00, -0,05, 0,04, 1,01
214, 0,00, 8817,90, 0,00, 0,00, 0,00, 0,00, 0,00, 0,00, -0,05, 0,04, 1,01
215, 0,00, 8830,68, 0,00, 0,00, 0,00, 0,00, 0,00, 0,00, -0,05, 0,04, 1,01
216, 0,00, 8865,62, 0,00, 0,00, 0,00, 0,00, 0,00, 0,00, -0,05, 0,04, 1,01
217, 0,00, 8864,21, 0,00, 0,00, 0,00, 0,00, 0,00, 0,00, -0,05, 0,04, 1,01
218, 0,00, 8848,81, 0,00, 0,00, 0,00, 0,00, 0,00, 0,00, -0,05, 0,05, 1,01
219, 0,00, 8814,61, 0,00, 0,00, 0,00, 0,00, 0,00, 0,00, -0,05, 0,05, 1,01
220, 0,00, 8831,20, 0,00, 0,00, 0,00, 0,00, 0,00, 0,00, -0,05, 0,05, 1,01
221, 0,00, 8876,64, 0,00, 0,00, 0,00, 0,00, 0,00, 0,00, -0,05, 0,05, 1,01
222, 0,00, 8869,55, 0,00, 0,00, 0,00, 0,00, 0,00, 0,00, -0,05, 0,05, 1,01
223, 0,00, 8840,94, 0,00, 0,00, 0,00, 0,00, 0,00, 0,00, -0,05, 0,05, 1,01
224, 0,00, 8815,06, 0,00, 0,00, 0,00, 0,00, 0,00, 0,00, -0,05, 0,05, 1,01
225, 0,00, 8834,04, 0,00, 0,00, 0,00, 0,00, 0,00, 0,00, -0,05, 0,05, 1,01
226, 0,00, 8871,23, 0,00, 0,00, 0,00, 0,00, 0,00, 0,00, -0,05, 0,05, 1,01
227, 0,00, 8860,23, 0,00, 0,00, 0,00, 0,00, 0,00, 0,00, -0,05, 0,05, 1,01
228, 0,00, 8839,53, 0,00, 0,00, 0,00, 0,00, 0,00, 0,00, -0,04, 0,05, 1,01
229, 0,00, 8810,48, 0,00, 0,00, 0,00, 0,00, 0,00, 0,00, -0,04, 0,05, 1,01
230, 0,00, 8827,42, 0,00, 0,00, 0,00, 0,00, 0,00, 0,00, -0,04, 0,05, 1,01
231, 0,00, 8867,45, 0,00, 0,00, 0,00, 0,00, 0,00, 0,00, -0,04, 0,05, 1,01
232, 0,00, 8860,25, 0,00, 0,00, 0,00, 0,00, 0,00, 0,00, -0,04, 0,05, 1,01
233, 0,00, 8828,67, 0,00, 0,00, 0,00, 0,00, 0,00, 0,00, -0,04, 0,05, 1,01
234, 0,00, 8804,04, 0,00, 0,00, 0,00, 0,00, 0,00, 0,00, -0,04, 0,05, 1,01
235, 0,00, 8827,35, 0,00, 0,00, 0,00, 0,00, 0,00, 0,00, -0,04, 0,05, 1,01
236, 0,00, 8862,82, 0,00, 0,00, 0,00, 0,00, 0,00, 0,00, -0,04, 0,05, 1,01
237, 0,00, 8856,90, 0,00, 0,00, 0,00, 0,00, 0,00, 0,00, -0,04, 0,05, 1,01
238, 0,00, 8847,31, 0,00, 0,00, 0,00, 0,00, 0,00, 0,00, -0,04, 0,05, 1,02
239, 0,00, 8820,69, 0,00, 0,00, 0,00, 0,00, 0,00, 0,00, -0,04, 0,05, 1,02
240, 0,00, 8828,22, 0,00, 0,00, 0,00, 0,00, 0,00, 0,00, -0,04, 0,05, 1,02
241, 0,00, 8860,46, 0,00, 0,00, 0,00, 0,00, 0,00, 0,00, -0,04, 0,05, 1,02
242, 0,00, 8863,27, 0,00, 0,00, 0,00, 0,00, 0,00, 0,00, -0,04, 0,05, 1,02
243, 0,00, 8841,61, 0,00, 0,00, 0,00, 0,00, 0,00, 0,00, -0,04, 0,05, 1,02
244, 0,00, 8813,11, 0,00, 0,00, 0,00, 0,00, 0,00, 0,00, -0,04, 0,05, 1,02
245, 0,00, 8835,67, 0,00, 0,00, 0,00, 0,00, 0,00, 0,00, -0,04, 0,05, 1,02
246, 0,00, 8870,71, 0,00, 0,00, 0,00, 0,00, 0,00, 0,00, -0,04, 0,05, 1,02
247, 0,00, 8863,65, 0,00, 0,00, 0,00, 0,00, 0,00, 0,00, -0,04, 0,05, 1,02
248, 0,00, 8846,64, 0,00, 0,00, 0,00, 0,00, 0,00, 0,00, -0,04, 0,05, 1,02
249, 0,00, 8816,51, 0,00, 0,00, 0,00, 0,00, 0,00, 0,00, -0,04, 0,05, 1,02
250, 0,00, 8826,57, 0,00, 0,00, 0,00, 0,00, 0,00, 0,00, -0,04, 0,05, 1,02
251, 0,00, 8863,94, 0,00, 0,00, 0,00, 0,00, 0,00, 0,00, -0,04, 0,05, 1,02
252, 0,00, 8866,53, 0,00, 0,00, 0,00, 0,00, 0,00, 0,00, -0,04, 0,05, 1,02
253, 0,00, 8845,17, 0,00, 0,00, 0,00, 0,00, 0,00, 0,00, -0,04, 0,05, 1,01
254, 0,00, 8815,33, 0,00, 0,00, 0,00, 0,00, 0,00, 0,00, -0,04, 0,05, 1,01
255, 0,00, 8831,60, 0,00, 0,00, 0,00, 0,00, 0,00, 0,00, -0,04, 0,05, 1,01
0, 0,00, 8870,27, 0,00, 0,00, 0,00, 0,00, 0,00, 0,00, -0,04, 0,05, 1,01
1, 0,00, 8864,81, 0,00, 0,00, 0,00, 0,00, 0,00, 0,00, -0,04, 0,05, 1,01
2, 0,00, 8843,94, 0,00, 0,00, 0,00, 0,00, 0,00, 0,00, -0,04, 0,05, 1,01
3, 0,00, 8814,19, 0,00, 0,00, 0,00, 0,00, 0,00, 0,00, -0,04, 0,05, 1,01
4, 0,00, 8835,64, 0,00, 0,00, 0,00, 0,00, 0,00, 0,00, -0,04, 0,05, 1,01
5, 0,00, 8872,32, 0,00, 0,00, 0,00, 0,00, 0,00, 0,00, -0,04, 0,05, 1,01
6, 0,00, 8870,56, 0,00, 0,00, 0,00, 0,00, 0,00, 0,00, -0,04, 0,05, 1,01
7, 0,00, 8852,14, 0,00, 0,00, 0,00, 0,00, 0,00, 0,00, -0,04, 0,05, 1,01
8, 0,00, 8820,24, 0,00, 0,00, 0,00, 0,00, 0,00, 0,00, -0,04, 0,05, 1,01
9, 0,00, 8830,73, 0,00, 0,00, 0,00, 0,00, 0,00, 0,00, -0,04, 0,05, 1,01
10, 0,00, 8867,58, 0,00, 0,00, 0,00, 0,00, 0,00, 0,00, -0,04, 0,05, 1,01
11, 0,00, 8868,57, 0,00, 0,00, 0,00, 0,00, 0,00, 0,00, -0,04, 0,05, 1,01
12, 0,00, 8852,99, 0,00, 0,00, 0,00, 0,00, 0,00, 0,00, -0,04, 0,05, 1,01
13, 0,00, 8824,83, 0,00, 0,00, 0,00, 0,00, 0,00, 0,00, -0,04, 0,05, 1,01
14, 0,00, 8830,75, 0,00, 0,00, 0,00, 0,00, 0,00, 0,00, -0,04, 0,05, 1,01
15, 0,00, 8864,17, 0,00, 0,00, 0,00, 0,00, 0,00, 0,00, -0,04, 0,05, 1,01
16, 0,00, 8864,23, 0,00, 0,00, 0,00, 0,00, 0,00, 0,00, -0,04, 0,05, 1,01
17, 0,00, 8845,55, 0,00, 0,00, 0,00, 0,00, 0,00, 0,00, -0,04, 0,05, 1,01
18, 0,00, 8823,64, 0,00, 0,00, 0,00, 0,00, 0,00, 0,00, -0,04, 0,05, 1,01
19, 0,00, 8837,12, 0,00, 0,00, 0,00, 0,00, 0,00, 0,00, -0,04, 0,05, 1,01
20, 0,00, 8875,72, 0,00, 0,00, 0,00, 0,00, 0,00, 0,00, -0,04, 0,05, 1,01
21, 0,00, 8881,08, 0,00, 0,00, 0,00, 0,00, 0,00, 0,00, -0,04, 0,05, 1,01
22, 0,00, 8861,88, 0,00, 0,00, 0,00, 0,00, 0,00, 0,00, -0,04, 0,04, 1,01
23, 0,00, 8826,97, 0,00, 0,00, 0,00, 0,00, 0,00, 0,00, -0,04, 0,04, 1,01
24, 0,00, 8830,84, 0,00, 0,00, 0,00, 0,00, 0,00, 0,00, -0,04, 0,04, 1,01
25, 0,00, 8869,93, 0,00, 0,00, 0,00, 0,00, 0,00, 0,00, -0,04, 0,04, 1,01
26, 0,00, 8873,84, 0,00, 0,00, 0,00, 0,00, 0,00, 0,00, -0,04, 0,04, 1,01
27, 0,00, 8853,95, 0,00, 0,00, 0,00, 0,00, 0,00, 0,00, -0,04, 0,04, 1,01
28, 0,00, 8828,11, 0,00, 0,00, 0,00, 0,00, 0,00, 0,00, -0,04, 0,04, 1,01
29, 0,00, 8841,61, 0,00, 0,00, 0,00, 0,00, 0,00, 0,00, -0,04, 0,04, 1,01
30, 0,00, 8878,43, 0,00, 0,00, 0,00, 0,00, 0,00, 0,00, -0,04, 0,04, 1,01
31, 0,00, 8868,41, 0,00, 0,00, 0,00, 0,00, 0,00, 0,00, -0,04, 0,04, 1,01
32, 0,00, 8844,43, 0,00, 0,00, 0,00, 0,00, 0,00, 0,00, -0,05, 0,05, 1,01
33, 0,00, 8823,78, 0,00, 0,00, 0,00, 0,00, 0,00, 0,00, -0,05, 0,05, 1,01
34, 0,00, 8833,21, 0,00, 0,00, 0,00, 0,00, 0,00, 0,00, -0,05, 0,05, 1,01
35, 0,00, 8863,32, 0,00, 0,00, 0,00, 0,00, 0,00, 0,00, -0,05, 0,05, 1,01
36, 0,00, 8864,68, 0,00, 0,00, 0,00, 0,00, 0,00, 0,00, -0,05, 0,05, 1,01
37, 0,00, 8844,67, 0,00, 0,00, 0,00, 0,00, 0,00, 0,00, -0,04, 0,05, 1,01
38, 0,00, 8814,21, 0,00, 0,00, 0,00, 0,00, 0,00, 0,00, -0,04, 0,05, 1,01
39, 0,00, 8819,84, 0,00, 0,00, 0,00, 0,00, 0,00, 0,00, -0,04, 0,05, 1,01
40, 0,00, 8856,83, 0,00, 0,00, 0,00, 0,00, 0,00, 0,00, -0,04, 0,05, 1,01
41, 0,00, 8856,41, 0,00, 0,00, 0,00, 0,00, 0,00, 0,00, -0,04, 0,05, 1,01
42, 0,00, 8834,93, 0,00, 0,00, 0,00, 0,00, 0,00, 0,00, -0,05, 0,04, 1,02
43, 0,00, 8800,55, 0,00, 0,00, 0,00, 0,00, 0,00, 0,00, -0,05, 0,04, 1,02
44, 0,00, 8807,57, 0,00, 0,00, 0,00, 0,00, 0,00, 0,00, -0,05, 0,04, 1,02
45, 0,00, 8848,29, 0,00, 0,00, 0,00, 0,00, 0,00, 0,00, -0,05, 0,04, 1,02
46, 0,00, 8852,36, 0,00, 0,00, 0,00, 0,00, 0,00, 0,00, -0,05, 0,04, 1,02
47, 0,00, 8829,45, 0,00, 0,00, 0,00, 0,00, 0,00, 0,00, -0,05, 0,04, 1,02
48, 0,00, 8792,91, 0,00, 0,00, 0,00, 0,00, 0,00, 0,00, -0,05, 0,04, 1,02
49, 0,00, 8798,83, 0,00, 0,00, 0,00, 0,00, 0,00, 0,00, -0,05, 0,04, 1,02
50, 0,00, 8839,15, 0,00, 0,00, 0,00, 0,00, 0,00, 0,00, -0,05, 0,04, 1,02
51, 0,00, 8848,70, 0,00, 0,00, 0,00, 0,00, 0,00, 0,00, -0,05, 0,04, 1,02
52, 0,00, 8828,78, 0,00, 0,00, 0,00, 0,00, 0,00, 0,00, -0,04, 0,04, 1,01
53, 0,00, 8797,45, 0,00, 0,00, 0,00, 0,00, 0,00, 0,00, -0,04, 0,04, 1,01
54, 0,00, 8803,52, 0,00, 0,00, 0,00, 0,00, 0,00, 0,00, -0,04, 0,04, 1,01
55, 0,00, 8835,44, 0,00, 0,00, 0,00, 0,00, 0,00, 0,00, -0,04, 0,04, 1,01
56, 0,00, 8835,89, 0,00, 0,00, 0,00, 0,00, 0,00, 0,00, -0,04, 0,04, 1,01
57, 0,00, 8830,41, 0,00, 0,00, 0,00, 0,00, 0,00, 0,00, -0,05, 0,05, 1,01
58, 0,00, 8800,33, 0,00, 0,00, 0,00, 0,00, 0,00, 0,00, -0,05, 0,05, 1,01
59, 0,00, 8800,78, 0,00, 0,00, 0,00, 0,00, 0,00, 0,00, -0,05, 0,05, 1,01
60, 0,00, 8834,88, 0,00, 0,00, 0,00, 0,00, 0,00, 0,00, -0,05, 0,05, 1,01
61, 0,00, 8836,31, 0,00, 0,00, 0,00, 0,00, 0,00, 0,00, -0,05, 0,05, 1,01
62, 0,00, 8822,59, 0,00, 0,00, 0,00, 0,00, 0,00, 0,00, -0,05, 0,05, 1,02
63, 0,00, 8792,73, 0,00, 0,00, 0,00, 0,00, 0,00, 0,00, -0,05, 0,05, 1,02
64, 0,00, 8790,14, 0,00, 0,00, 0,00, 0,00, 0,00, 0,00, -0,05, 0,05, 1,02
65, 0,00, 8822,43, 0,00, 0,00, 0,00, 0,00, 0,00, 0,00, -0,05, 0,05, 1,02
66, 0,00, 8830,79, 0,00, 0,00, 0,00, 0,00, 0,00, 0,00, -0,05, 0,05, 1,02
67, 0,00, 8809,83, 0,00, 0,00, 0,00, 0,00, 0,00, 0,00, -0,04, 0,04, 1,02
68, 0,00, 8779,61, 0,00, 0,00, 0,00, 0,00, 0,00, 0,00, -0,04, 0,04, 1,02
69, 0,00, 8782,87, 0,00, 0,00, 0,00, 0,00, 0,00, 0,00, -0,04, 0,04, 1,02
70, 0,00, 8820,27, 0,00, 0,00, 0,00, 0,00, 0,00, 0,00, -0,04, 0,04, 1,02
71, 0,00, 8824,38, 0,00, 0,00, 0,00, 0,00, 0,00, 0,00, -0,04, 0,04, 1,02
72, 0,00, 8811,37, 0,00, 0,00, 0,00, 0,00, 0,00, 0,00, -0,04, 0,04, 1,02
73, 0,00, 8784,08, 0,00, 0,00, 0,00, 0,00, 0,00, 0,00, -0,04, 0,04, 1,02
74, 0,00, 8780,50, 0,00, 0,00, 0,00, 0,00, 0,00, 0,00, -0,04, 0,04, 1,02
75, 0,00, 8818,66, 0,00, 0,00, 0,00, 0,00, 0,00, 0,00, -0,04, 0,04, 1,02
76, 0,00, 8819,73, 0,00, 0,00, 0,00, 0,00, 0,00, 0,00, -0,04, 0,04, 1,02
77, 0,00, 8802,43, 0,00, 0,00, 0,00, 0,00, 0,00, 0,00, -0,05, 0,04, 1,01
78, 0,00, 8773,91, 0,00, 0,00, 0,00, 0,00, 0,00, 0,00, -0,05, 0,04, 1,01
79, 0,00, 8779,85, 0,00, 0,00, 0,00, 0,00, 0,00, 0,00, -0,05, 0,04, 1,01
80, 0,00, 8817,27, 0,00, 0,00, 0,00, 0,00, 0,00, 0,00, -0,05, 0,04, 1,01
81, 0,00, 8822,79, 0,00, 0,00, 0,00, 0,00, 0,00, 0,00, -0,05, 0,04, 1,01
82, 0,00, 8806,68, 0,00, 0,00, 0,00, 0,00, 0,00, 0,00, -0,04, 0,04, 1,02
83, 0,00, 8779,76, 0,00, 0,00, 0,00, 0,00, 0,00, 0,00, -0,04, 0,04, 1,02
84, 0,00, 8784,82, 0,00, 0,00, 0,00, 0,00, 0,00, 0,00, -0,04, 0,04, 1,02
85, 0,00, 8826,77, 0,00, 0,00, 0,00, 0,00, 0,00, 0,00, -0,04, 0,04, 1,02
86, 0,00, 8831,84, 0,00, 0,00, 0,00, 0,00, 0,00, 0,00, -0,04, 0,04, 1,02
87, 0,00, 8817,74, 0,00, 0,00, 0,00, 0,00, 0,00, 0,00, -0,04, 0,05, 1,02
88, 0,00, 8790,40, 0,00, 0,00, 0,00, 0,00, 0,00, 0,00, -0,04, 0,05, 1,02
89, 0,00, 8791,57, 0,00, 0,00, 0,00, 0,00, 0,00, 0,00, -0,04, 0,05, 1,02
90, 0,00, 8830,59, 0,00, 0,00, 0,00, 0,00, 0,00, 0,00, -0,04, 0,05, 1,02
91, 0,00, 8835,51, 0,00, 0,00, 0,00, 0,00, 0,00, 0,00, -0,04, 0,05, 1,02
92, 0,00, 8822,88, 0,00, 0,00, 0,00, 0,00, 0,00, 0,00, -0,04, 0,04, 1,01
93, 0,00, 8801,04, 0,00, 0,00, 0,00, 0,00, 0,00, 0,00, -0,04, 0,04, 1,01
94, 0,00, 8800,19, 0,00, 0,00, 0,00, 0,00, 0,00, 0,00, -0,04, 0,04, 1,01
95, 0,00, 8833,81, 0,00, 0,00, 0,00, 0,00, 0,00, 0,00, -0,04, 0,04, 1,01
96, 0,00, 8836,96, 0,00, 0,00, 0,00, 0,00, 0,00, 0,00, -0,04, 0,04, 1,01
97, 0,00, 8821,50, 0,00, 0,00, 0,00, 0,00, 0,00, 0,00, -0,04, 0,05, 1,01
98, 0,00, 8798,96, 0,00, 0,00, 0,00, 0,00, 0,00, 0,00, -0,04, 0,05, 1,01
99, 0,00, 8801,83, 0,00, 0,00, 0,00, 0,00, 0,00, 0,00, -0,04, 0,05, 1,01
100, 0,00, 8842,22, 0,00, 0,00, 0,00, 0,00, 0,00, 0,00, -0,04, 0,05, 1,01
101, 0,00, 8841,70, 0,00, 0,00, 0,00, 0,00, 0,00, 0,00, -0,04, 0,05, 1,01
102, 0,00, 8815,62, 0,00, 0,00, 0,00, 0,00, 0,00, 0,00, -0,04, 0,05, 1,01
103, 0,00, 8782,65, 0,00, 0,00, 0,00, 0,00, 0,00, 0,00, -0,04, 0,05, 1,01
104, 0,00, 8783,97, 0,00, 0,00, 0,00, 0,00, 0,00, 0,00, -0,04, 0,05, 1,01
105, 0,00, 8823,31, 0,00, 0,00, 0,00, 0,00, 0,00, 0,00, -0,04, 0,05, 1,01
106, 0,00, 8834,37, 0,00, 0,00, 0,00, 0,00, 0,00, 0,00, -0,04, 0,05, 1,01
107, 0,00, 8821,81, 0,00, 0,00, 0,00, 0,00, 0,00, 0,00, -0,05, 0,05, 1,02
108, 0,00, 8788,46, 0,00, 0,00, 0,00, 0,00, 0,00, 0,00, -0,05, 0,05, 1,02
109, 0,00, 8788,01, 0,00, 0,00, 0,00, 0,00, 0,00, 0,00, -0,05, 0,05, 1,02
110, 0,00, 8837,61, 0,00, 0,00, 0,00, 0,00, 0,00, 0,00, -0,05, 0,05, 1,02
111, 0,00, 8846,04, 0,00, 0,00, 0,00, 0,00, 0,00, 0,00, -0,05, 0,05, 1,02
112, 0,00, 8829,56, 0,00, 0,00, 0,00, 0,00, 0,00, 0,00, -0,05, 0,04, 1,02
113, 0,00, 8798,58, 0,00, 0,00, 0,00, 0,00, 0,00, 0,00, -0,05, 0,04, 1,02
114, 0,00, 8794,54, 0,00, 0,00, 0,00, 0,00, 0,00, 0,00, -0,05, 0,04, 1,02
115, 0,00, 8830,01, 0,00, 0,00, 0,00, 0,00, 0,00, 0,00, -0,05, 0,04, 1,02
116, 0,00, 8834,73, 0,00, 0,00, 0,00, 0,00, 0,00, 0,00, -0,05, 0,04, 1,02
117, 0,00, 8821,14, 0,00, 0,00, 0,00, 0,00, 0,00, 0,00, -0,05, 0,04, 1,02
118, 0,00, 8797,85, 0,00, 0,00, 0,00, 0,00, 0,00, 0,00, -0,05, 0,04, 1,02
119, 0,00, 8797,83, 0,00, 0,00, 0,00, 0,00, 0,00, 0,00, -0,05, 0,04, 1,02
120, 0,00, 8832,98, 0,00, 0,00, 0,00, 0,00, 0,00, 0,00, -0,05, 0,04, 1,02
121, 0,00, 8836,00, 0,00, 0,00, 0,00, 0,00, 0,00, 0,00, -0,05, 0,04, 1,02
122, 0,00, 8823,28, 0,00, 0,00, 0,00, 0,00, 0,00, 0,00, -0,05, 0,05, 1,02
123, 0,00, 8796,91, 0,00, 0,00, 0,00, 0,00, 0,00, 0,00, -0,05, 0,05, 1,02
124, 0,00, 8786,02, 0,00, 0,00, 0,00, 0,00, 0,00, 0,00, -0,05, 0,05, 1,02
125, 0,00, 8820,71, 0,00, 0,00, 0,00, 0,00, 0,00, 0,00, -0,05, 0,05, 1,02
126, 0,00, 8828,71, 0,00, 0,00, 0,00, 0,00, 0,00, 0,00, -0,05, 0,05, 1,02
127, 0,00, 8816,40, 0,00, 0,00, 0,00, 0,00, 0,00, 0,00, -0,04, 0,05, 1,02
128, 0,00, 8787,86, 0,00, 0,00, 0,00, 0,00, 0,00, 0,00, -0,04, 0,05, 1,02
129, 0,00, 8780,73, 0,00, 0,00, 0,00, 0,00, 0,00, 0,00, -0,04, 0,05, 1,02
130, 0,00, 8814,10, 0,00, 0,00, 0,00, 0,00, 0,00, 0,00, -0,04, 0,05, 1,02
131, 0,00, 8821,27, 0,00, 0,00, 0,00, 0,00, 0,00, 0,00, -0,04, 0,05, 1,02
132, 0,00, 8809,87, 0,00, 0,00, 0,00, 0,00, 0,00, 0,00, -0,04, 0,04, 1,02
133, 0,00, 8788,15, 0,00, 0,00, 0,00, 0,00, 0,00, 0,00, -0,04, 0,04, 1,02
134, 0,00, 8791,59, 0,00, 0,00, 0,00, 0,00, 0,00, 0,00, -0,04, 0,04, 1,02
135, 0,00, 8825,27, 0,00, 0,00, 0,00, 0,00, 0,00, 0,00, -0,04, 0,04, 1,02
136, 0,00, 8828,83, 0,00, 0,00, 0,00, 0,00, 0,00, 0,00, -0,04, 0,04, 1,02
137, 0,00, 8820,40, 0,00, 0,00, 0,00, 0,00, 0,00, 0,00, -0,05, 0,04, 1,02
138, 0,00, 8796,73, 0,00, 0,00, 0,00, 0,00, 0,00, 0,00, -0,05, 0,04, 1,02
139, 0,00, 8797,07, 0,00, 0,00, 0,00, 0,00, 0,00, 0,00, -0,05, 0,04, 1,02
140, 0,00, 8837,16, 0,00, 0,00, 0,00, 0,00, 0,00, 0,00, -0,05, 0,04, 1,02
141, 0,00, 8845,66, 0,00, 0,00, 0,00, 0,00, 0,00, 0,00, -0,05, 0,04, 1,02
142, 0,00, 8811,42, 0,00, 0,00, 0,00, 0,00, 0,00, 0,00, -0,05, 0,04, 1,02
143, 0,00, 8773,84, 0,00, 0,00, 0,00, 0,00, 0,00, 0,00, -0,05, 0,04, 1,02
144, 0,00, 8777,53, 0,00, 0,00, 0,00, 0,00, 0,00, 0,00, -0,05, 0,04, 1,02
145, 0,00, 8820,07, 0,00, 0,00, 0,00, 0,00, 0,00, 0,00, -0,05, 0,04, 1,02
146, 0,00, 8830,26, 0,00, 0,00, 0,00, 0,00, 0,00, 0,00, -0,05, 0,04, 1,02
147, 0,00, 8810,36, 0,00, 0,00, 0,00, 0,00, 0,00, 0,00, -0,05, 0,04, 1,01
148, 0,00, 8781,06, 0,00, 0,00, 0,00, 0,00, 0,00, 0,00, -0,05, 0,04, 1,01
149, 0,00, 8777,24, 0,00, 0,00, 0,00, 0,00, 0,00, 0,00, -0,05, 0,04, 1,01
150, 0,00, 8818,05, 0,00, 0,00, 0,00, 0,00, 0,00, 0,00, -0,05, 0,04, 1,01
151, 0,00, 8829,12, 0,00, 0,00, 0,00, 0,00, 0,00, 0,00, -0,05, 0,04, 1,01
152, 0,00, 8819,28, 0,00, 0,00, 0,00, 0,00, 0,00, 0,00, -0,05, 0,05, 1,01
153, 0,00, 8792,21, 0,00, 0,00, 0,00, 0,00, 0,00, 0,00, -0,05, 0,05, 1,01
154, 0,00, 8783,65, 0,00, 0,00, 0,00, 0,00, 0,00, 0,00, -0,05, 0,05, 1,01
155, 0,00, 8822,66, 0,00, 0,00, 0,00, 0,00, 0,00, 0,00, -0,05, 0,05, 1,01
156, 0,00, 8836,16, 0,00, 0,00, 0,00, 0,00, 0,00, 0,00, -0,05, 0,05, 1,01
157, 0,00, 8823,26, 0,00, 0,00, 0,00, 0,00, 0,00, 0,00, -0,05, 0,05, 1,01
158, 0,00, 8789,71, 0,00, 0,00, 0,00, 0,00, 0,00, 0,00, -0,04, 0,05, 1,01
159, 0,00, 8784,86, 0,00, 0,00, 0,00, 0,00, 0,00, 0,00, -0,04, 0,05, 1,01
160, 0,00, 8822,46, 0,00, 0,00, 0,00, 0,00, 0,00, 0,00, -0,04, 0,05, 1,01
161, 0,00, 8832,29, 0,00, 0,00, 0,00, 0,00, 0,00, 0,00, -0,04, 0,05, 1,01
162, 0,00, 8822,39, 0,00, 0,00, 0,00, 0,00, 0,00, 0,00, -0,04, 0,05, 1,01
163, 0,00, 8800,57, 0,00, 0,00, 0,00, 0,00, 0,00, 0,00, -0,04, 0,04, 1,01
164, 0,00, 8792,13, 0,00, 0,00, 0,00, 0,00, 0,00, 0,00, -0,04, 0,04, 1,01
165, 0,00, 8814,77, 0,00, 0,00, 0,00, 0,00, 0,00, 0,00, -0,04, 0,04, 1,01
166, 0,00, 8814,32, 0,00, 0,00, 0,00, 0,00, 0,00, 0,00, -0,04, 0,04, 1,01
167, 0,00, 8796,13, 0,00, 0,00, 0,00, 0,00, 0,00, 0,00, -0,04, 0,04, 1,01
168, 0,00, 8769,93, 0,00, 0,00, 0,00, 0,00, 0,00, 0,00, -0,05, 0,05, 1,01
169, 0,00, 8765,44, 0,00, 0,00, 0,00, 0,00, 0,00, 0,00, -0,05, 0,05, 1,01
170, 0,00, 8807,66, 0,00, 0,00, 0,00, 0,00, 0,00, 0,00, -0,05, 0,05, 1,01
171, 0,00, 8818,63, 0,00, 0,00, 0,00, 0,00, 0,00, 0,00, -0,05, 0,05, 1,01
172, 0,00, 8803,77, 0,00, 0,00, 0,00, 0,00, 0,00, 0,00, -0,05, 0,05, 1,01
173, 0,00, 8776,43, 0,00, 0,00, 0,00, 0,00, 0,00, 0,00, -0,04, 0,05, 1,01
174, 0,00, 8774,87, 0,00, 0,00, 0,00, 0,00, 0,00, 0,00, -0,04, 0,05, 1,01
175, 0,00, 8816,82, 0,00, 0,00, 0,00, 0,00, 0,00, 0,00, -0,04, 0,05, 1,01
176, 0,00, 8829,39, 0,00, 0,00, 0,00, 0,00, 0,00, 0,00, -0,04, 0,05, 1,01
177, 0,00, 8815,17, 0,00, 0,00, 0,00, 0,00, 0,00, 0,00, -0,04, 0,05, 1,01
178, 0,00, 8781,64, 0,00, 0,00, 0,00, 0,00, 0,00, 0,00, -0,05, 0,05, 1,01
179, 0,00, 8772,95, 0,00, 0,00, 0,00, 0,00, 0,00, 0,00, -0,05, 0,05, 1,01
180, 0,00, 8812,38, 0,00, 0,00, 0,00, 0,00, 0,00, 0,00, -0,05, 0,05, 1,01
181, 0,00, 8823,31, 0,00, 0,00, 0,00, 0,00, 0,00, 0,00, -0,05, 0,05, 1,01
182, 0,00, 8811,75, 0,00, 0,00, 0,00, 0,00, 0,00, 0,00, -0,05, 0,05, 1,01
183, 0,00, 8786,90, 0,00, 0,00, 0,00, 0,00, 0,00, 0,00, -0,05, 0,05, 1,01
184, 0,00, 8776,17, 0,00, 0,00, 0,00, 0,00, 0,00, 0,00, -0,05, 0,05, 1,01
185, 0,00, 8819,24, 0,00, 0,00, 0,00, 0,00, 0,00, 0,00, -0,05, 0,05, 1,01
186, 0,00, 8834,26, 0,00, 0,00, 0,00, 0,00, 0,00, 0,00, -0,05, 0,05, 1,01
187, 0,00, 8817,58, 0,00, 0,00, 0,00, 0,00, 0,00, 0,00, -0,05, 0,05, 1,01
188, 0,00, 8789,69, 0,00, 0,00, 0,00, 0,00, 0,00, 0,00, -0,05, 0,04, 1,01
189, 0,00, 8785,15, 0,00, 0,00, 0,00, 0,00, 0,00, 0,00, -0,05, 0,04, 1,01
190, 0,00, 8828,49, 0,00, 0,00, 0,00, 0,00, 0,00, 0,00, -0,05, 0,04, 1,01
191, 0,00, 8844,54, 0,00, 0,00, 0,00, 0,00, 0,00, 0,00, -0,05, 0,04, 1,01
192, 0,00, 8825,56, 0,00, 0,00, 0,00, 0,00, 0,00, 0,00, -0,05, 0,04, 1,01
193, 0,00, 8795,95, 0,00, 0,00, 0,00, 0,00, 0,00, 0,00, -0,04, 0,04, 1,02
194, 0,00, 8787,68, 0,00, 0,00, 0,00, 0,00, 0,00, 0,00, -0,04, 0,04, 1,02
195, 0,00, 8830,68, 0,00, 0,00, 0,00, 0,00, 0,00, 0,00, -0,04, 0,04, 1,02
196, 0,00, 8849,93, 0,00, 0,00, 0,00, 0,00, 0,00, 0,00, -0,04, 0,04, 1,02
197, 0,00, 8831,71, 0,00, 0,00, 0,00, 0,00, 0,00, 0,00, -0,04, 0,04, 1,02
198, 0,00, 8799,84, 0,00, 0,00, 0,00, 0,00, 0,00, 0,00, -0,04, 0,04, 1,02
199, 0,00, 8780,79, 0,00, 0,00, 0,00, 0,00, 0,00, 0,00, -0,04, 0,04, 1,02
200, 0,00, 8810,14, 0,00, 0,00, 0,00, 0,00, 0,00, 0,00, -0,04, 0,04, 1,02
201, 0,00, 8834,39, 0,00, 0,00, 0,00, 0,00, 0,00, 0,00, -0,04, 0,04, 1,02
202, 0,00, 8823,13, 0,00, 0,00, 0,00, 0,00, 0,00, 0,00, -0,04, 0,04, 1,02
203, 0,00, 8795,77, 0,00, 0,00, 0,00, 0,00, 0,00, 0,00, -0,05, 0,05, 1,02
204, 0,00, 8783,52, 0,00, 0,00, 0,00, 0,00, 0,00, 0,00, -0,05, 0,05, 1,02
205, 0,00, 8817,72, 0,00, 0,00, 0,00, 0,00, 0,00, 0,00, -0,05, 0,05, 1,02
206, 0,00, 8834,57, 0,00, 0,00, 0,00, 0,00, 0,00, 0,00, -0,05, 0,05, 1,02
207, 0,00, 8823,08, 0,00, 0,00, 0,00, 0,00, 0,00, 0,00, -0,05, 0,05, 1,02
208, 0,00, 8790,58, 0,00, 0,00, 0,00, 0,00, 0,00, 0,00, -0,04, 0,04, 1,02
209, 0,00, 8783,14, 0,00, 0,00, 0,00, 0,00, 0,00, 0,00, -0,04, 0,04, 1,02
210, 0,00, 8819,30, 0,00, 0,00, 0,00, 0,00, 0,00, 0,00, -0,04, 0,04, 1,02
211, 0,00, 8831,22, 0,00, 0,00, 0,00, 0,00, 0,00, 0,00, -0,04, 0,04, 1,02
212, 0,00, 8821,27, 0,00, 0,00, 0,00, 0,00, 0,00, 0,00, -0,04, 0,04, 1,02
213, 0,00, 8796,42, 0,00, 0,00, 0,00, 0,00, 0,00, 0,00, -0,05, 0,04, 1,02
214, 0,00, 8786,49, 0,00, 0,00, 0,00, 0,00, 0,00, 0,00, -0,05, 0,04, 1,02
215, 0,00, 8821,94, 0,00, 0,00, 0,00, 0,00, 0,00, 0,00, -0,05, 0,04, 1,02
216, 0,00, 8842,39, 0,00, 0,00, 0,00, 0,00, 0,00, 0,00, -0,05, 0,04, 1,02
217, 0,00, 8829,77, 0,00, 0,00, 0,00, 0,00, 0,00, 0,00, -0,05, 0,04, 1,02
218, 0,00, 8800,35, 0,00, 0,00, 0,00, 0,00, 0,00, 0,00, -0,05, 0,04, 1,02
219, 0,00, 8791,19, 0,00, 0,00, 0,00, 0,00, 0,00, 0,00, -0,05, 0,04, 1,02
220, 0,00, 8831,08, 0,00, 0,00, 0,00, 0,00, 0,00, 0,00, -0,05, 0,04, 1,02
221, 0,00, 8849,08, 0,00, 0,00, 0,00, 0,00, 0,00, 0,00, -0,05, 0,04, 1,02
222, 0,00, 8831,29, 0,00, 0,00, 0,00, 0,00, 0,00, 0,00, -0,05, 0,04, 1,02
223, 0,00, 8804,17, 0,00, 0,00, 0,00, 0,00, 0,00, 0,00, -0,04, 0,04, 1,01
224, 0,00, 8794,45, 0,00, 0,00, 0,00, 0,00, 0,00, 0,00, -0,04, 0,04, 1,01
225, 0,00, 8822,43, 0,00, 0,00, 0,00, 0,00, 0,00, 0,00, -0,04, 0,04, 1,01
226, 0,00, 8831,93, 0,00, 0,00, 0,00, 0,00, 0,00, 0,00, -0,04, 0,04, 1,01
227, 0,00, 8820,65, 0,00, 0,00, 0,00, 0,00, 0,00, 0,00, -0,04, 0,04, 1,01
228, 0,00, 8801,42, 0,00, 0,00, 0,00, 0,00, 0,00, 0,00, -0,05, 0,04, 1,01
229, 0,00, 8793,71, 0,00, 0,00, 0,00, 0,00, 0,00, 0,00, -0,05, 0,04, 1,01
230, 0,00, 8825,88, 0,00, 0,00, 0,00, 0,00, 0,00, 0,00, -0,05, 0,04, 1,01
231, 0,00, 8837,83, 0,00, 0,00, 0,00, 0,00, 0,00, 0,00, -0,05, 0,04, 1,01
232, 0,00, 8821,50, 0,00, 0,00, 0,00, 0,00, 0,00, 0,00, -0,05, 0,04, 1,01
233, 0,00, 8794,81, 0,00, 0,00, 0,00, 0,00, 0,00, 0,00, -0,05, 0,04, 1,02
234, 0,00, 8780,57, 0,00, 0,00, 0,00, 0,00, 0,00, 0,00, -0,05, 0,04, 1,02
235, 0,00, 8810,77, 0,00, 0,00, 0,00, 0,00, 0,00, 0,00, -0,05, 0,04, 1,02
236, 0,00, 8834,57, 0,00, 0,00, 0,00, 0,00, 0,00, 0,00, -0,05, 0,04, 1,02
237, 0,00, 8828,38, 0,00, 0,00, 0,00, 0,00, 0,00, 0,00, -0,05, 0,04, 1,02
238, 0,00, 8806,88, 0,00, 0,00, 0,00, 0,00, 0,00, 0,00, -0,05, 0,04, 1,01
239, 0,00, 8793,60, 0,00, 0,00, 0,00, 0,00, 0,00, 0,00, -0,05, 0,04, 1,01
240, 0,00, 8821,56, 0,00, 0,00, 0,00, 0,00, 0,00, 0,00, -0,05, 0,04, 1,01
241, 0,00, 8831,46, 0,00, 0,00, 0,00, 0,00, 0,00, 0,00, -0,05, 0,04, 1,01
242, 0,00, 8819,30, 0,00, 0,00, 0,00, 0,00, 0,00, 0,00, -0,05, 0,04, 1,01
243, 0,00, 8794,00, 0,00, 0,00, 0,00, 0,00, 0,00, 0,00, -0,05, 0,05, 1,02
244, 0,00, 8782,18, 0,00, 0,00, 0,00, 0,00, 0,00, 0,00, -0,05, 0,05, 1,02
245, 0,00, 8818,01, 0,00, 0,00, 0,00, 0,00, 0,00, 0,00, -0,05, 0,05, 1,02
246, 0,00, 8833,21, 0,00, 0,00, 0,00, 0,00, 0,00, 0,00, -0,05, 0,05, 1,02
247, 0,00, 8821,18, 0,00, 0,00, 0,00, 0,00, 0,00, 0,00, -0,05, 0,05, 1,02
248, 0,00, 8797,94, 0,00, 0,00, 0,00, 0,00, 0,00, 0,00, -0,04, 0,05, 1,02
249, 0,00, 8787,43, 0,00, 0,00, 0,00, 0,00, 0,00, 0,00, -0,04, 0,05, 1,02
250, 0,00, 8826,95, 0,00, 0,00, 0,00, 0,00, 0,00, 0,00, -0,04, 0,05, 1,02
251, 0,00, 8842,55, 0,00, 0,00, 0,00, 0,00, 0,00, 0,00, -0,04, 0,05, 1,02
252, 0,00, 8824,94, 0,00, 0,00, 0,00, 0,00, 0,00, 0,00, -0,04, 0,05, 1,02
253, 0,00, 8790,58, 0,00, 0,00, 0,00, 0,00, 0,00, 0,00, -0,05, 0,05, 1,01
254, 0,00, 8777,31, 0,00, 0,00, 0,00, 0,00, 0,00, 0,00, -0,05, 0,05, 1,01
255, 0,00, 8814,50, 0,00, 0,00, 0,00, 0,00, 0,00, 0,00, -0,05, 0,05, 1,01
0, 0,00, 8839,15, 0,00, 0,00, 0,00, 0,00, 0,00, 0,00, -0,05, 0,05, 1,01
1, 0,00, 8825,59, 0,00, 0,00, 0,00, 0,00, 0,00, 0,00, -0,05, 0,05, 1,01
2, 0,00, 8792,35, 0,00, 0,00, 0,00, 0,00, 0,00, 0,00, -0,05, 0,05, 1,01
3, 0,00, 8777,17, 0,00, 0,00, 0,00, 0,00, 0,00, 0,00, -0,05, 0,05, 1,01
4, 0,00, 8814,63, 0,00, 0,00, 0,00, 0,00, 0,00, 0,00, -0,05, 0,05, 1,01
5, 0,00, 8835,96, 0,00, 0,00, 0,00, 0,00, 0,00, 0,00, -0,05, 0,05, 1,01
6, 0,00, 8827,20, 0,00, 0,00, 0,00, 0,00, 0,00, 0,00, -0,05, 0,05, 1,01
7, 0,00, 8805,27, 0,00, 0,00, 0,00, 0,00, 0,00, 0,00, -0,05, 0,05, 1,01
8, 0,00, 8789,44, 0,00, 0,00, 0,00, 0,00, 0,00, 0,00, -0,05, 0,05, 1,01
9, 0,00, 8826,35, 0,00, 0,00, 0,00, 0,00, 0,00, 0,00, -0,05, 0,05, 1,01
10, 0,00, 8842,15, 0,00, 0,00, 0,00, 0,00, 0,00, 0,00, -0,05, 0,05, 1,01
11, 0,00, 8824,33, 0,00, 0,00, 0,00, 0,00, 0,00, 0,00, -0,05, 0,05, 1,01
12, 0,00, 8795,37, 0,00, 0,00, 0,00, 0,00, 0,00, 0,00, -0,05, 0,04, 1,01
13, 0,00, 8770,60, 0,00, 0,00, 0,00, 0,00, 0,00, 0,00, -0,05, 0,04, 1,01
14, 0,00, 8802,85, 0,00, 0,00, 0,00, 0,00, 0,00, 0,00, -0,05, 0,04, 1,01
15, 0,00, 8834,12, 0,00, 0,00, 0,00, 0,00, 0,00, 0,00, -0,05, 0,04, 1,01
16, 0,00, 8827,75, 0,00, 0,00, 0,00, 0,00, 0,00, 0,00, -0,05, 0,04, 1,01
17, 0,00, 8801,54, 0,00, 0,00, 0,00, 0,00, 0,00, 0,00, -0,05, 0,05, 1,01
18, 0,00, 8791,48, 0,00, 0,00, 0,00, 0,00, 0,00, 0,00, -0,05, 0,05, 1,01
19, 0,00, 8832,00, 0,00, 0,00, 0,00, 0,00, 0,00, 0,00, -0,05, 0,05, 1,01
20, 0,00, 8849,06, 0,00, 0,00, 0,00, 0,00, 0,00, 0,00, -0,05, 0,05, 1,01
21, 0,00, 8834,50, 0,00, 0,00, 0,00, 0,00, 0,00, 0,00, -0,05, 0,05, 1,01
22, 0,00, 8809,02, 0,00, 0,00, 0,00, 0,00, 0,00, 0,00, -0,05, 0,05, 1,01
23, 0,00, 8791,46, 0,00, 0,00, 0,00, 0,00, 0,00, 0,00, -0,05, 0,05, 1,01
24, 0,00, 8829,25, 0,00, 0,00, 0,00, 0,00, 0,00, 0,00, -0,05, 0,05, 1,01
25, 0,00, 8846,64, 0,00, 0,00, 0,00, 0,00, 0,00, 0,00, -0,05, 0,05, 1,01
26, 0,00, 8825,92, 0,00, 0,00, 0,00, 0,00, 0,00, 0,00, -0,05, 0,05, 1,01
27, 0,00, 8801,71, 0,00, 0,00, 0,00, 0,00, 0,00, 0,00, -0,05, 0,04, 1,01
28, 0,00, 8788,73, 0,00, 0,00, 0,00, 0,00, 0,00, 0,00, -0,05, 0,04, 1,01
29, 0,00, 8824,04, 0,00, 0,00, 0,00, 0,00, 0,00, 0,00, -0,05, 0,04, 1,01
30, 0,00, 8842,15, 0,00, 0,00, 0,00, 0,00, 0,00, 0,00, -0,05, 0,04, 1,01
31, 0,00, 8828,89, 0,00, 0,00, 0,00, 0,00, 0,00, 0,00, -0,05, 0,04, 1,01
32, 0,00, 8808,13, 0,00, 0,00, 0,00, 0,00, 0,00, 0,00, -0,04, 0,05, 1,01
33, 0,00, 8794,27, 0,00, 0,00, 0,00, 0,00, 0,00, 0,00, -0,04, 0,05, 1,01
34, 0,00, 8830,35, 0,00, 0,00, 0,00, 0,00, 0,00, 0,00, -0,04, 0,05, 1,01
35, 0,00, 8853,79, 0,00, 0,00, 0,00, 0,00, 0,00, 0,00, -0,04, 0,05, 1,01
36, 0,00, 8841,23, 0,00, 0,00, 0,00, 0,00, 0,00, 0,00, -0,04, 0,05, 1,01
37, 0,00, 8806,81, 0,00, 0,00, 0,00, 0,00, 0,00, 0,00, -0,04, 0,04, 1,02
38, 0,00, 8781,75, 0,00, 0,00, 0,00, 0,00, 0,00, 0,00, -0,04, 0,04, 1,02
39, 0,00, 8820,80, 0,00, 0,00, 0,00, 0,00, 0,00, 0,00, -0,04, 0,04, 1,02
40, 0,00, 8840,36, 0,00, 0,00, 0,00, 0,00, 0,00, 0,00, -0,04, 0,04, 1,02
41, 0,00, 8826,21, 0,00, 0,00, 0,00, 0,00, 0,00, 0,00, -0,04, 0,04, 1,02
42, 0,00, 8800,31, 0,00, 0,00, 0,00, 0,00, 0,00, 0,00, -0,04, 0,04, 1,02
43, 0,00, 8781,55, 0,00, 0,00, 0,00, 0,00, 0,00, 0,00, -0,04, 0,04, 1,02
44, 0,00, 8816,98, 0,00, 0,00, 0,00, 0,00, 0,00, 0,00, -0,04, 0,04, 1,02
45, 0,00, 8837,52, 0,00, 0,00, 0,00, 0,00, 0,00, 0,00, -0,04, 0,04, 1,02
46, 0,00, 8825,21, 0,00, 0,00, 0,00, 0,00, 0,00, 0,00, -0,04, 0,04, 1,02
47, 0,00, 8798,32, 0,00, 0,00, 0,00, 0,00, 0,00, 0,00, -0,04, 0,04, 1,01
48, 0,00, 8781,98, 0,00, 0,00, 0,00, 0,00, 0,00, 0,00, -0,04, 0,04, 1,01
49, 0,00, 8820,20, 0,00, 0,00, 0,00, 0,00, 0,00, 0,00, -0,04, 0,04, 1,01
50, 0,00, 8844,09, 0,00, 0,00, 0,00, 0,00, 0,00, 0,00, -0,04, 0,04, 1,01
51, 0,00, 8834,12, 0,00, 0,00, 0,00, 0,00, 0,00, 0,00, -0,04, 0,04, 1,01
52, 0,00, 8812,44, 0,00, 0,00, 0,00, 0,00, 0,00, 0,00, -0,04, 0,05, 1,01
53, 0,00, 8795,95, 0,00, 0,00, 0,00, 0,00, 0,00, 0,00, -0,04, 0,05, 1,01
54, 0,00, 8829,01, 0,00, 0,00, 0,00, 0,00, 0,00, 0,00, -0,04, 0,05, 1,01
55, 0,00, 8853,32, 0,00, 0,00, 0,00, 0,00, 0,00, 0,00, -0,04, 0,05, 1,01
56, 0,00, 8833,28, 0,00, 0,00, 0,00, 0,00, 0,00, 0,00, -0,04, 0,05, 1,01
57, 0,00, 8800,73, 0,00, 0,00, 0,00, 0,00, 0,00, 0,00, -0,04, 0,05, 1,01
58, 0,00, 8785,06, 0,00, 0,00, 0,00, 0,00, 0,00, 0,00, -0,04, 0,05, 1,01
59, 0,00, 8822,32, 0,00, 0,00, 0,00, 0,00, 0,00, 0,00, -0,04, 0,05, 1,01
60, 0,00, 8845,77, 0,00, 0,00, 0,00, 0,00, 0,00, 0,00, -0,04, 0,05, 1,01
61, 0,00, 8830,93, 0,00, 0,00, 0,00, 0,00, 0,00, 0,00, -0,04, 0,05, 1,01
62, 0,00, 8810,74, 0,00, 0,00, 0,00, 0,00, 0,00, 0,00, -0,05, 0,05, 1,01
63, 0,00, 8797,96, 0,00, 0,00, 0,00, 0,00, 0,00, 0,00, -0,05, 0,05, 1,01
64, 0,00, 8829,16, 0,00, 0,00, 0,00, 0,00, 0,00, 0,00, -0,05, 0,05, 1,01
65, 0,00, 8844,34, 0,00, 0,00, 0,00, 0,00, 0,00, 0,00, -0,05, 0,05, 1,01
66, 0,00, 8831,53, 0,00, 0,00, 0,00, 0,00, 0,00, 0,00, -0,05, 0,05, 1,01
67, 0,00, 8804,04, 0,00, 0,00, 0,00, 0,00, 0,00, 0,00, -0,05, 0,05, 1,02
68, 0,00, 8781,35, 0,00, 0,00, 0,00, 0,00, 0,00, 0,00, -0,05, 0,05, 1,02
69, 0,00, 8816,31, 0,00, 0,00, 0,00, 0,00, 0,00, 0,00, -0,05, 0,05, 1,02
70, 0,00, 8842,08, 0,00, 0,00, 0,00, 0,00, 0,00, 0,00, -0,05, 0,05, 1,02
71, 0,00, 8831,02, 0,00, 0,00, 0,00, 0,00, 0,00, 0,00, -0,05, 0,05, 1,02
72, 0,00, 8803,35, 0,00, 0,00, 0,00, 0,00, 0,00, 0,00, -0,05, 0,04, 1,02
73, 0,00, 8783,14, 0,00, 0,00, 0,00, 0,00, 0,00, 0,00, -0,05, 0,04, 1,02
74, 0,00, 8819,69, 0,00, 0,00, 0,00, 0,00, 0,00, 0,00, -0,05, 0,04, 1,02
75, 0,00, 8848,38, 0,00, 0,00, 0,00, 0,00, 0,00, 0,00, -0,05, 0,04, 1,02
76, 0,00, 8833,95, 0,00, 0,00, 0,00, 0,00, 0,00, 0,00, -0,05, 0,04, 1,02
77, 0,00, 8807,86, 0,00, 0,00, 0,00, 0,00, 0,00, 0,00, -0,05, 0,05, 1,02
78, 0,00, 8787,90, 0,00, 0,00, 0,00, 0,00, 0,00, 0,00, -0,05, 0,05, 1,02
79, 0,00, 8821,16, 0,00, 0,00, 0,00, 0,00, 0,00, 0,00, -0,05, 0,05, 1,02
80, 0,00, 8844,41, 0,00, 0,00, 0,00, 0,00, 0,00, 0,00, -0,05, 0,05, 1,02
81, 0,00, 8828,40, 0,00, 0,00, 0,00, 0,00, 0,00, 0,00, -0,05, 0,05, 1,02
82, 0,00, 8796,51, 0,00, 0,00, 0,00, 0,00, 0,00, 0,00, -0,05, 0,05, 1,01
83, 0,00, 8777,28, 0,00, 0,00, 0,00, 0,00, 0,00, 0,00, -0,05, 0,05, 1,01
84, 0,00, 8815,33, 0,00, 0,00, 0,00, 0,00, 0,00, 0,00, -0,05, 0,05, 1,01
85, 0,00, 8836,78, 0,00, 0,00, 0,00, 0,00, 0,00, 0,00, -0,05, 0,05, 1,01
86, 0,00, 8825,09, 0,00, 0,00, 0,00, 0,00, 0,00, 0,00, -0,05, 0,05, 1,01
87, 0,00, 8802,72, 0,00, 0,00, 0,00, 0,00, 0,00, 0,00, -0,05, 0,05, 1,02
88, 0,00, 8784,10, 0,00, 0,00, 0,00, 0,00, 0,00, 0,00, -0,05, 0,05, 1,02
89, 0,00, 8817,27, 0,00, 0,00, 0,00, 0,00, 0,00, 0,00, -0,05, 0,05, 1,02
90, 0,00, 8844,05, 0,00, 0,00, 0,00, 0,00, 0,00, 0,00, -0,05, 0,05, 1,02
91, 0,00, 8833,07, 0,00, 0,00, 0,00, 0,00, 0,00, 0,00, -0,05, 0,05, 1,02
92, 0,00, 8807,35, 0,00, 0,00, 0,00, 0,00, 0,00, 0,00, -0,04, 0,05, 1,02
93, 0,00, 8787,77, 0,00, 0,00, 0,00, 0,00, 0,00, 0,00, -0,04, 0,05, 1,02
94, 0,00, 8821,07, 0,00, 0,00, 0,00, 0,00, 0,00, 0,00, -0,04, 0,05, 1,02
95, 0,00, 8843,56, 0,00, 0,00, 0,00, 0,00, 0,00, 0,00, -0,04, 0,05, 1,02
96, 0,00, 8832,72, 0,00, 0,00, 0,00, 0,00, 0,00, 0,00, -0,04, 0,05, 1,02
97, 0,00, 8806,56, 0,00, 0,00, 0,00, 0,00, 0,00, 0,00, -0,05, 0,05, 1,02
98, 0,00, 8783,32, 0,00, 0,00, 0,00, 0,00, 0,00, 0,00, -0,05, 0,05, 1,02
99, 0,00, 8811,77, 0,00, 0,00, 0,00, 0,00, 0,00, 0,00, -0,05, 0,05, 1,02
100, 0,00, 8834,84, 0,00, 0,00, 0,00, 0,00, 0,00, 0,00, -0,05, 0,05, 1,02
101, 0,00, 8826,17, 0,00, 0,00, 0,00, 0,00, 0,00, 0,00, -0,05, 0,05, 1,02
102, 0,00, 8801,63, 0,00, 0,00, 0,00, 0,00, 0,00, 0,00, -0,04, 0,04, 1,02
103, 0,00, 8781,51, 0,00, 0,00, 0,00, 0,00, 0,00, 0,00, -0,04, 0,04, 1,02
104, 0,00, 8811,53, 0,00, 0,00, 0,00, 0,00, 0,00, 0,00, -0,04, 0,04, 1,02
105, 0,00, 8840,92, 0,00, 0,00, 0,00, 0,00, 0,00, 0,00, -0,04, 0,04, 1,02
106, 0,00, 8833,77, 0,00, 0,00, 0,00, 0,00, 0,00, 0,00, -0,04, 0,04, 1,02
107, 0,00, 8812,98, 0,00, 0,00, 0,00, 0,00, 0,00, 0,00, -0,05, 0,04, 1,02
108, 0,00, 8785,73, 0,00, 0,00, 0,00, 0,00, 0,00, 0,00, -0,05, 0,04, 1,02
109, 0,00, 8819,62, 0,00, 0,00, 0,00, 0,00, 0,00, 0,00, -0,05, 0,04, 1,02
110, 0,00, 8843,13, 0,00, 0,00, 0,00, 0,00, 0,00, 0,00, -0,05, 0,04, 1,02
111, 0,00, 8830,93, 0,00, 0,00, 0,00, 0,00, 0,00, 0,00, -0,05, 0,04, 1,02
112, 0,00, 8803,19, 0,00, 0,00, 0,00, 0,00, 0,00, 0,00, -0,05, 0,05, 1,02
113, 0,00, 8778,65, 0,00, 0,00, 0,00, 0,00, 0,00, 0,00, -0,05, 0,05, 1,02
114, 0,00, 8811,39, 0,00, 0,00, 0,00, 0,00, 0,00, 0,00, -0,05, 0,05, 1,02
115, 0,00, 8837,34, 0,00, 0,00, 0,00, 0,00, 0,00, 0,00, -0,05, 0,05, 1,02
116, 0,00, 8826,46, 0,00, 0,00, 0,00, 0,00, 0,00, 0,00, -0,05, 0,05, 1,02
117, 0,00, 8804,33, 0,00, 0,00, 0,00, 0,00, 0,00, 0,00, -0,05, 0,05, 1,02
118, 0,00, 8783,50, 0,00, 0,00, 0,00, 0,00, 0,00, 0,00, -0,05, 0,05, 1,02
119, 0,00, 8811,75, 0,00, 0,00, 0,00, 0,00, 0,00, 0,00, -0,05, 0,05, 1,02
120, 0,00, 8834,64, 0,00, 0,00, 0,00, 0,00, 0,00, 0,00, -0,05, 0,05, 1,02
121, 0,00, 8822,26, 0,00, 0,00, 0,00, 0,00, 0,00, 0,00, -0,05, 0,05, 1,02
122, 0,00, 8800,91, 0,00, 0,00, 0,00, 0,00, 0,00, 0,00, -0,04, 0,05, 1,01
123, 0,00, 8779,92, 0,00, 0,00, 0,00, 0,00, 0,00, 0,00, -0,04, 0,05, 1,01
124, 0,00, 8811,24, 0,00, 0,00, 0,00, 0,00, 0,00, 0,00, -0,04, 0,05, 1,01
125, 0,00, 8837,12, 0,00, 0,00, 0,00, 0,00, 0,00, 0,00, -0,04, 0,05, 1,01
126, 0,00, 8826,12, 0,00, 0,00, 0,00, 0,00, 0,00, 0,00, -0,04, 0,05, 1,01
127, 0,00, 8814,92, 0,00, 0,00, 0,00, 0,00, 0,00, 0,00, -0,04, 0,05, 1,02
128, 0,00, 8799,26, 0,00, 0,00, 0,00, 0,00, 0,00, 0,00, -0,04, 0,05, 1,02
129, 0,00, 8825,68, 0,00, 0,00, 0,00, 0,00, 0,00, 0,00, -0,04, 0,05, 1,02
130, 0,00, 8841,68, 0,00, 0,00, 0,00, 0,00, 0,00, 0,00, -0,04, 0,05, 1,02
131, 0,00, 8823,57, 0,00, 0,00, 0,00, 0,00, 0,00, 0,00, -0,04, 0,05, 1,02
132, 0,00, 8797,65, 0,00, 0,00, 0,00, 0,00, 0,00, 0,00, -0,04, 0,04, 1,02
133, 0,00, 8774,02, 0,00, 0,00, 0,00, 0,00, 0,00, 0,00, -0,04, 0,04, 1,02
134, 0,00, 8806,52, 0,00, 0,00, 0,00, 0,00, 0,00, 0,00, -0,04, 0,04, 1,02
135, 0,00, 8836,76, 0,00, 0,00, 0,00, 0,00, 0,00, 0,00, -0,04, 0,04, 1,02
136, 0,00, 8826,03, 0,00, 0,00, 0,00, 0,00, 0,00, 0,00, -0,04, 0,04, 1,02
137, 0,00, 8798,85, 0,00, 0,00, 0,00, 0,00, 0,00, 0,00, -0,05, 0,04, 1,01
138, 0,00, 8774,29, 0,00, 0,00, 0,00, 0,00, 0,00, 0,00, -0,05, 0,04, 1,01
139, 0,00, 8805,38, 0,00, 0,00, 0,00, 0,00, 0,00, 0,00, -0,05, 0,04, 1,01
140, 0,00, 8829,23, 0,00, 0,00, 0,00, 0,00, 0,00, 0,00, -0,05, 0,04, 1,01
141, 0,00, 8826,66, 0,00, 0,00, 0,00, 0,00, 0,00, 0,00, -0,05, 0,04, 1,01
142, 0,00, 8809,51, 0,00, 0,00, 0,00, 0,00, 0,00, 0,00, -0,05, 0,04, 1,01
143, 0,00, 8780,37, 0,00, 0,00, 0,00, 0,00, 0,00, 0,00, -0,05, 0,04, 1,01
144, 0,00, 8807,21, 0,00, 0,00, 0,00, 0,00, 0,00, 0,00, -0,05, 0,04, 1,01
145, 0,00, 8838,04, 0,00, 0,00, 0,00, 0,00, 0,00, 0,00, -0,05, 0,04, 1,01
146, 0,00, 8826,77, 0,00, 0,00, 0,00, 0,00, 0,00, 0,00, -0,05, 0,04, 1,01
147, 0,00, 8800,91, 0,00, 0,00, 0,00, 0,00, 0,00, 0,00, -0,04, 0,04, 1,01
148, 0,00, 8779,85, 0,00, 0,00, 0,00, 0,00, 0,00, 0,00, -0,04, 0,04, 1,01
149, 0,00, 8807,46, 0,00, 0,00, 0,00, 0,00, 0,00, 0,00, -0,04, 0,04, 1,01
150, 0,00, 8841,66, 0,00, 0,00, 0,00, 0,00, 0,00, 0,00, -0,04, 0,04, 1,01
151, 0,00, 8832,36, 0,00, 0,00, 0,00, 0,00, 0,00, 0,00, -0,04, 0,04, 1,01
152, 0,00, 8809,98, 0,00, 0,00, 0,00, 0,00, 0,00, 0,00, -0,04, 0,04, 1,01
153, 0,00, 8788,44, 0,00, 0,00, 0,00, 0,00, 0,00, 0,00, -0,04, 0,04, 1,01
154, 0,00, 8815,35, 0,00, 0,00, 0,00, 0,00, 0,00, 0,00, -0,04, 0,04, 1,01
155, 0,00, 8841,90, 0,00, 0,00, 0,00, 0,00, 0,00, 0,00, -0,04, 0,04, 1,01
156, 0,00, 8827,51, 0,00, 0,00, 0,00, 0,00, 0,00, 0,00, -0,04, 0,04, 1,01
157, 0,00, 8798,34, 0,00, 0,00, 0,00, 0,00, 0,00, 0,00, -0,04, 0,04, 1,01
158, 0,00, 8775,79, 0,00, 0,00, 0,00, 0,00, 0,00, 0,00, -0,05, 0,04, 1,01
159, 0,00, 8810,30, 0,00, 0,00, 0,00, 0,00, 0,00, 0,00, -0,05, 0,04, 1,01
160, 0,00, 8849,97, 0,00, 0,00, 0,00, 0,00, 0,00, 0,00, -0,05, 0,04, 1,01
161, 0,00, 8840,96, 0,00, 0,00, 0,00, 0,00, 0,00, 0,00, -0,05, 0,04, 1,01
162, 0,00, 8813,87, 0,00, 0,00, 0,00, 0,00, 0,00, 0,00, -0,05, 0,04, 1,01
163, 0,00, 8783,10, 0,00, 0,00, 0,00, 0,00, 0,00, 0,00, -0,04, 0,04, 1,01
164, 0,00, 8810,79, 0,00, 0,00, 0,00, 0,00, 0,00, 0,00, -0,04, 0,04, 1,01
165, 0,00, 8841,19, 0,00, 0,00, 0,00, 0,00, 0,00, 0,00, -0,04, 0,04, 1,01
166, 0,00, 8831,73, 0,00, 0,00, 0,00, 0,00, 0,00, 0,00, -0,04, 0,04, 1,01
167, 0,00, 8807,06, 0,00, 0,00, 0,00, 0,00, 0,00, 0,00, -0,04, 0,04, 1,01
168, 0,00, 8784,12, 0,00, 0,00, 0,00, 0,00, 0,00, 0,00, -0,05, 0,04, 1,01
169, 0,00, 8816,49, 0,00, 0,00, 0,00, 0,00, 0,00, 0,00, -0,05, 0,04, 1,01
170, 0,00, 8849,86, 0,00, 0,00, 0,00, 0,00, 0,00, 0,00, -0,05, 0,04, 1,01
171, 0,00, 8840,67, 0,00, 0,00, 0,00, 0,00, 0,00, 0,00, -0,05, 0,04, 1,01
172, 0,00, 8813,34, 0,00, 0,00, 0,00, 0,00, 0,00, 0,00, -0,05, 0,04, 1,01
173, 0,00, 8786,11, 0,00, 0,00, 0,00, 0,00, 0,00, 0,00, -0,04, 0,04, 1,01
174, 0,00, 8806,86, 0,00, 0,00, 0,00, 0,00, 0,00, 0,00, -0,04, 0,04, 1,01
175, 0,00, 8834,97, 0,00, 0,00, 0,00, 0,00, 0,00, 0,00, -0,04, 0,04, 1,01
176, 0,00, 8829,48, 0,00, 0,00, 0,00, 0,00, 0,00, 0,00, -0,04, 0,04, 1,01
177, 0,00, 8808,11, 0,00, 0,00, 0,00, 0,00, 0,00, 0,00, -0,04, 0,04, 1,01
178, 0,00, 8785,26, 0,00, 0,00, 0,00, 0,00, 0,00, 0,00, -0,04, 0,04, 1,01
179, 0,00, 8810,59, 0,00, 0,00, 0,00, 0,00, 0,00, 0,00, -0,04, 0,04, 1,01
180, 0,00, 8849,06, 0,00, 0,00, 0,00, 0,00, 0,00, 0,00, -0,04, 0,04, 1,01
181, 0,00, 8842,98, 0,00, 0,00, 0,00, 0,00, 0,00, 0,00, -0,04, 0,04, 1,01
182, 0,00, 8816,40, 0,00, 0,00, 0,00, 0,00, 0,00, 0,00, -0,04, 0,04, 1,01
183, 0,00, 8787,21, 0,00, 0,00, 0,00, 0,00, 0,00, 0,00, -0,05, 0,05, 1,02
184, 0,00, 8810,23, 0,00, 0,00, 0,00, 0,00, 0,00, 0,00, -0,05, 0,05, 1,02
185, 0,00, 8846,17, 0,00, 0,00, 0,00, 0,00, 0,00, 0,00, -0,05, 0,05, 1,02
186, 0,00, 8840,67, 0,00, 0,00, 0,00, 0,00, 0,00, 0,00, -0,05, 0,05, 1,02
187, 0,00, 8819,19, 0,00, 0,00, 0,00, 0,00, 0,00, 0,00, -0,05, 0,05, 1,02
188, 0,00, 8794,96, 0,00, 0,00, 0,00, 0,00, 0,00, 0,00, -0,05, 0,05, 1,02
189, 0,00, 8819,39, 0,00, 0,00, 0,00, 0,00, 0,00, 0,00, -0,05, 0,05, 1,02
190, 0,00, 8850,26, 0,00, 0,00, 0,00, 0,00, 0,00, 0,00, -0,05, 0,05, 1,02
191, 0,00, 8841,03, 0,00, 0,00, 0,00, 0,00, 0,00, 0,00, -0,05, 0,05, 1,02
192, 0,00, 8816,38, 0,00, 0,00, 0,00, 0,00, 0,00, 0,00, -0,05, 0,05, 1,02
193, 0,00, 8795,84, 0,00, 0,00, 0,00, 0,00, 0,00, 0,00, -0,05, 0,05, 1,02
194, 0,00, 8825,12, 0,00, 0,00, 0,00, 0,00, 0,00, 0,00, -0,05, 0,05, 1,02
195, 0,00, 8850,84, 0,00, 0,00, 0,00, 0,00, 0,00, 0,00, -0,05, 0,05, 1,02
196, 0,00, 8836,29, 0,00, 0,00, 0,00, 0,00, 0,00, 0,00, -0,05, 0,05, 1,02
197, 0,00, 8805,69, 0,00, 0,00, 0,00, 0,00, 0,00, 0,00, -0,05, 0,05, 1,02
198, 0,00, 8782,25, 0,00, 0,00, 0,00, 0,00, 0,00, 0,00, -0,05, 0,05, 1,01
199, 0,00, 8813,49, 0,00, 0,00, 0,00, 0,00, 0,00, 0,00, -0,05, 0,05, 1,01
200, 0,00, 8848,18, 0,00, 0,00, 0,00, 0,00, 0,00, 0,00, -0,05, 0,05, 1,01
201, 0,00, 8834,01, 0,00, 0,00, 0,00, 0,00, 0,00, 0,00, -0,05, 0,05, 1,01
202, 0,00, 8811,33, 0,00, 0,00, 0,00, 0,00, 0,00, 0,00, -0,05, 0,05, 1,01
203, 0,00, 8786,72, 0,00, 0,00, 0,00, 0,00, 0,00, 0,00, -0,05, 0,04, 1,01
204, 0,00, 8807,93, 0,00, 0,00, 0,00, 0,00, 0,00, 0,00, -0,05, 0,04, 1,01
205, 0,00, 8840,88, 0,00, 0,00, 0,00, 0,00, 0,00, 0,00, -0,05, 0,04, 1,01
206, 0,00, 8834,46, 0,00, 0,00, 0,00, 0,00, 0,00, 0,00, -0,05, 0,04, 1,01
207, 0,00, 8814,86, 0,00, 0,00, 0,00, 0,00, 0,00, 0,00, -0,05, 0,04, 1,01
208, 0,00, 8791,28, 0,00, 0,00, 0,00, 0,00, 0,00, 0,00, -0,05, 0,04, 1,01
209, 0,00, 8814,72, 0,00, 0,00, 0,00, 0,00, 0,00, 0,00, -0,05, 0,04, 1,01
210, 0,00, 8841,90, 0,00, 0,00, 0,00, 0,00, 0,00, 0,00, -0,05, 0,04, 1,01
211, 0,00, 8833,57, 0,00, 0,00, 0,00, 0,00, 0,00, 0,00, -0,05, 0,04, 1,01
212, 0,00, 8812,38, 0,00, 0,00, 0,00, 0,00, 0,00, 0,00, -0,05, 0,04, 1,01
213, 0,00, 8788,93, 0,00, 0,00, 0,00, 0,00, 0,00, 0,00, -0,04, 0,05, 1,01
214, 0,00, 8817,45, 0,00, 0,00, 0,00, 0,00, 0,00, 0,00, -0,04, 0,05, 1,01
215, 0,00, 8852,18, 0,00, 0,00, 0,00, 0,00, 0,00, 0,00, -0,04, 0,05, 1,01
216, 0,00, 8844,09, 0,00, 0,00, 0,00, 0,00, 0,00, 0,00, -0,04, 0,05, 1,01
217, 0,00, 8820,87, 0,00, 0,00, 0,00, 0,00, 0,00, 0,00, -0,04, 0,05, 1,01
218, 0,00, 8801,36, 0,00, 0,00, 0,00, 0,00, 0,00, 0,00, -0,04, 0,04, 1,01
219, 0,00, 8824,25, 0,00, 0,00, 0,00, 0,00, 0,00, 0,00, -0,04, 0,04, 1,01
220, 0,00, 8849,59, 0,00, 0,00, 0,00, 0,00, 0,00, 0,00, -0,04, 0,04, 1,01
221, 0,00, 8837,28, 0,00, 0,00, 0,00, 0,00, 0,00, 0,00, -0,04, 0,04, 1,01
222, 0,00, 8810,34, 0,00, 0,00, 0,00, 0,00, 0,00, 0,00, -0,04, 0,04, 1,01
223, 0,00, 8785,49, 0,00, 0,00, 0,00, 0,00, 0,00, 0,00, -0,04, 0,04, 1,01
224, 0,00, 8812,15, 0,00, 0,00, 0,00, 0,00, 0,00, 0,00, -0,04, 0,04, 1,01
225, 0,00, 8848,56, 0,00, 0,00, 0,00, 0,00, 0,00, 0,00, -0,04, 0,04, 1,01
226, 0,00, 8838,62, 0,00, 0,00, 0,00, 0,00, 0,00, 0,00, -0,04, 0,04, 1,01
227, 0,00, 8815,64, 0,00, 0,00, 0,00, 0,00, 0,00, 0,00, -0,04, 0,04, 1,01
228, 0,00, 8783,70, 0,00, 0,00, 0,00, 0,00, 0,00, 0,00, -0,04, 0,04, 1,01
229, 0,00, 8806,88, 0,00, 0,00, 0,00, 0,00, 0,00, 0,00, -0,04, 0,04, 1,01
230, 0,00, 8842,06, 0,00, 0,00, 0,00, 0,00, 0,00, 0,00, -0,04, 0,04, 1,01
231, 0,00, 8838,19, 0,00, 0,00, 0,00, 0,00, 0,00, 0,00, -0,04, 0,04, 1,01
232, 0,00, 8818,08, 0,00, 0,00, 0,00, 0,00, 0,00, 0,00, -0,04, 0,04, 1,01
233, 0,00, 8792,21, 0,00, 0,00, 0,00, 0,00, 0,00, 0,00, -0,05, 0,04, 1,02
234, 0,00, 8809,29, 0,00, 0,00, 0,00, 0,00, 0,00, 0,00, -0,05, 0,04, 1,02
235, 0,00, 8843,96, 0,00, 0,00, 0,00, 0,00, 0,00, 0,00, -0,05, 0,04, 1,02
236, 0,00, 8845,55, 0,00, 0,00, 0,00, 0,00, 0,00, 0,00, -0,05, 0,04, 1,02
237, 0,00, 8818,30, 0,00, 0,00, 0,00, 0,00, 0,00, 0,00, -0,05, 0,04, 1,02
238, 0,00, 8788,68, 0,00, 0,00, 0,00, 0,00, 0,00, 0,00, -0,05, 0,04, 1,01
239, 0,00, 8813,20, 0,00, 0,00, 0,00, 0,00, 0,00, 0,00, -0,05, 0,04, 1,01
240, 0,00, 8847,94, 0,00, 0,00, 0,00, 0,00, 0,00, 0,00, -0,05, 0,04, 1,01
241, 0,00, 8841,32, 0,00, 0,00, 0,00, 0,00, 0,00, 0,00, -0,05, 0,04, 1,01
242, 0,00, 8830,24, 0,00, 0,00, 0,00, 0,00, 0,00, 0,00, -0,05, 0,04, 1,01
243, 0,00, 8803,26, 0,00, 0,00, 0,00, 0,00, 0,00, 0,00, -0,04, 0,05, 1,01
244, 0,00, 8814,48, 0,00, 0,00, 0,00, 0,00, 0,00, 0,00, -0,04, 0,05, 1,01
245, 0,00, 8847,00, 0,00, 0,00, 0,00, 0,00, 0,00, 0,00, -0,04, 0,05, 1,01
246, 0,00, 8834,59, 0,00, 0,00, 0,00, 0,00, 0,00, 0,00, -0,04, 0,05, 1,01
247, 0,00, 8812,98, 0,00, 0,00, 0,00, 0,00, 0,00, 0,00, -0,04, 0,05, 1,01
248, 0,00, 8786,51, 0,00, 0,00, 0,00, 0,00, 0,00, 0,00, -0,04, 0,04, 1,02
249, 0,00, 8802,16, 0,00, 0,00, 0,00, 0,00, 0,00, 0,00, -0,04, 0,04, 1,02
250, 0,00, 8840,81, 0,00, 0,00, 0,00, 0,00, 0,00, 0,00, -0,04, 0,04, 1,02
251, 0,00, 8836,69, 0,00, 0,00, 0,00, 0,00, 0,00, 0,00, -0,04, 0,04, 1,02
252, 0,00, 8808,17, 0,00, 0,00, 0,00, 0,00, 0,00, 0,00, -0,04, 0,04, 1,02
253, 0,00, 8781,84, 0,00, 0,00, 0,00, 0,00, 0,00, 0,00, -0,04, 0,04, 1,01
254, 0,00, 8810,81, 0,00, 0,00, 0,00, 0,00, 0,00, 0,00, -0,04, 0,04, 1,01
255, 0,00, 8852,34, 0,00, 0,00, 0,00, 0,00, 0,00, 0,00, -0,04, 0,04, 1,01
0, 0,00, 8846,33, 0,00, 0,00, 0,00, 0,00, 0,00, 0,00, -0,04, 0,04, 1,01
1, 0,00, 8815,80, 0,00, 0,00, 0,00, 0,00, 0,00, 0,00, -0,04, 0,04, 1,01
2, 0,00, 8783,63, 0,00, 0,00, 0,00, 0,00, 0,00, 0,00, -0,05, 0,04, 1,01
3, 0,00, 8809,25, 0,00, 0,00, 0,00, 0,00, 0,00, 0,00, -0,05, 0,04, 1,01
4, 0,00, 8845,57, 0,00, 0,00, 0,00, 0,00, 0,00, 0,00, -0,05, 0,04, 1,01
5, 0,00, 8841,59, 0,00, 0,00, 0,00, 0,00, 0,00, 0,00, -0,05, 0,04, 1,01
6, 0,00, 8821,81, 0,00, 0,00, 0,00, 0,00, 0,00, 0,00, -0,05, 0,04, 1,01
7, 0,00, 8791,32, 0,00, 0,00, 0,00, 0,00, 0,00, 0,00, -0,04, 0,05, 1,01
8, 0,00, 8808,44, 0,00, 0,00, 0,00, 0,00, 0,00, 0,00, -0,04, 0,05, 1,01
9, 0,00, 8844,74, 0,00, 0,00, 0,00, 0,00, 0,00, 0,00, -0,04, 0,05, 1,01
10, 0,00, 8839,06, 0,00, 0,00, 0,00, 0,00, 0,00, 0,00, -0,04, 0,05, 1,01
11, 0,00, 8818,86, 0,00, 0,00, 0,00, 0,00, 0,00, 0,00, -0,04, 0,05, 1,01
12, 0,00, 8800,22, 0,00, 0,00, 0,00, 0,00, 0,00, 0,00, -0,04, 0,05, 1,02
13, 0,00, 8827,58, 0,00, 0,00, 0,00, 0,00, 0,00, 0,00, -0,04, 0,05, 1,02
14, 0,00, 8857,42, 0,00, 0,00, 0,00, 0,00, 0,00, 0,00, -0,04, 0,05, 1,02
15, 0,00, 8841,21, 0,00, 0,00, 0,00, 0,00, 0,00, 0,00, -0,04, 0,05, 1,02
16, 0,00, 8816,51, 0,00, 0,00, 0,00, 0,00, 0,00, 0,00, -0,04, 0,05, 1,02
17, 0,00, 8795,43, 0,00, 0,00, 0,00, 0,00, 0,00, 0,00, -0,04, 0,05, 1,02
18, 0,00, 8817,54, 0,00, 0,00, 0,00, 0,00, 0,00, 0,00, -0,04, 0,05, 1,02
19, 0,00, 8851,60, 0,00, 0,00, 0,00, 0,00, 0,00, 0,00, -0,04, 0,05, 1,02
20, 0,00, 8849,39, 0,00, 0,00, 0,00, 0,00, 0,00, 0,00, -0,04, 0,05, 1,02
21, 0,00, 8834,10, 0,00, 0,00, 0,00, 0,00, 0,00, 0,00, -0,04, 0,05, 1,02
22, 0,00, 8797,98, 0,00, 0,00, 0,00, 0,00, 0,00, 0,00, -0,04, 0,05, 1,01
23, 0,00, 8809,56, 0,00, 0,00, 0,00, 0,00, 0,00, 0,00, -0,04, 0,05, 1,01
24, 0,00, 8848,36, 0,00, 0,00, 0,00, 0,00, 0,00, 0,00, -0,04, 0,05, 1,01
25, 0,00, 8849,23, 0,00, 0,00, 0,00, 0,00, 0,00, 0,00, -0,04, 0,05, 1,01
26, 0,00, 8828,36, 0,00, 0,00, 0,00, 0,00, 0,00, 0,00, -0,04, 0,05, 1,01
27, 0,00, 8803,88, 0,00, 0,00, 0,00, 0,00, 0,00, 0,00, -0,04, 0,05, 1,01
28, 0,00, 8823,37, 0,00, 0,00, 0,00, 0,00, 0,00, 0,00, -0,04, 0,05, 1,01
29, 0,00, 8863,03, 0,00, 0,00, 0,00, 0,00, 0,00, 0,00, -0,04, 0,05, 1,01
30, 0,00, 8859,85, 0,00, 0,00, 0,00, 0,00, 0,00, 0,00, -0,04, 0,05, 1,01
31, 0,00, 8844,23, 0,00, 0,00, 0,00, 0,00, 0,00, 0,00, -0,04, 0,05, 1,01
32, 0,00, 8812,64, 0,00, 0,00, 0,00, 0,00, 0,00, 0,00, -0,04, 0,05, 1,01
33, 0,00, 8823,84, 0,00, 0,00, 0,00, 0,00, 0,00, 0,00, -0,04, 0,05, 1,01
34, 0,00, 8857,84, 0,00, 0,00, 0,00, 0,00, 0,00, 0,00, -0,04, 0,05, 1,01
35, 0,00, 8861,59, 0,00, 0,00, 0,00, 0,00, 0,00, 0,00, -0,04, 0,05, 1,01
36, 0,00, 8844,29, 0,00, 0,00, 0,00, 0,00, 0,00, 0,00, -0,04, 0,05, 1,01
37, 0,00, 8812,58, 0,00, 0,00, 0,00, 0,00, 0,00, 0,00, -0,04, 0,05, 1,02
38, 0,00, 8826,35, 0,00, 0,00, 0,00, 0,00, 0,00, 0,00, -0,04, 0,05, 1,02
39, 0,00, 8858,73, 0,00, 0,00, 0,00, 0,00, 0,00, 0,00, -0,04, 0,05, 1,02
40, 0,00, 8859,07, 0,00, 0,00, 0,00, 0,00, 0,00, 0,00, -0,04, 0,05, 1,02
41, 0,00, 8846,40, 0,00, 0,00, 0,00, 0,00, 0,00, 0,00, -0,04, 0,05, 1,02
42, 0,00, 8818,50, 0,00, 0,00, 0,00, 0,00, 0,00, 0,00, -0,04, 0,05, 1,02
43, 0,00, 8824,04, 0,00, 0,00, 0,00, 0,00, 0,00, 0,00, -0,04, 0,05, 1,02
44, 0,00, 8858,29, 0,00, 0,00, 0,00, 0,00, 0,00, 0,00, -0,04, 0,05, 1,02
45, 0,00, 8856,36, 0,00, 0,00, 0,00, 0,00, 0,00, 0,00, -0,04, 0,05, 1,02
46, 0,00, 8834,71, 0,00, 0,00, 0,00, 0,00, 0,00, 0,00, -0,04, 0,05, 1,02
47, 0,00, 8802,59, 0,00, 0,00, 0,00, 0,00, 0,00, 0,00, -0,05, 0,05, 1,02
48, 0,00, 8819,42, 0,00, 0,00, 0,00, 0,00, 0,00, 0,00, -0,05, 0,05, 1,02
49, 0,00, 8865,46, 0,00, 0,00, 0,00, 0,00, 0,00, 0,00, -0,05, 0,05, 1,02
50, 0,00, 8868,28, 0,00, 0,00, 0,00, 0,00, 0,00, 0,00, -0,05, 0,05, 1,02
51, 0,00, 8849,44, 0,00, 0,00, 0,00, 0,00, 0,00, 0,00, -0,05, 0,05, 1,02
52, 0,00, 8819,66, 0,00, 0,00, 0,00, 0,00, 0,00, 0,00, -0,04, 0,05, 1,01
53, 0,00, 8832,40, 0,00, 0,00, 0,00, 0,00, 0,00, 0,00, -0,04, 0,05, 1,01
54, 0,00, 8867,23, 0,00, 0,00, 0,00, 0,00, 0,00, 0,00, -0,04, 0,05, 1,01
55, 0,00, 8865,80, 0,00, 0,00, 0,00, 0,00, 0,00, 0,00, -0,04, 0,05, 1,01
56, 0,00, 8850,37, 0,00, 0,00, 0,00, 0,00, 0,00, 0,00, -0,04, 0,05, 1,01
57, 0,00, 8820,87, 0,00, 0,00, 0,00, 0,00, 0,00, 0,00, -0,05, 0,05, 1,02
58, 0,00, 8829,68, 0,00, 0,00, 0,00, 0,00, 0,00, 0,00, -0,05, 0,05, 1,02
59, 0,00, 8872,68, 0,00, 0,00, 0,00, 0,00, 0,00, 0,00, -0,05, 0,05, 1,02
60, 0,00, 8872,48, 0,00, 0,00, 0,00, 0,00, 0,00, 0,00, -0,05, 0,05, 1,02
61, 0,00, 8852,41, 0,00, 0,00, 0,00, 0,00, 0,00, 0,00, -0,05, 0,05, 1,02
62, 0,00, 8817,54, 0,00, 0,00, 0,00, 0,00, 0,00, 0,00, -0,04, 0,05, 1,01
63, 0,00, 8827,55, 0,00, 0,00, 0,00, 0,00, 0,00, 0,00, -0,04, 0,05, 1,01
64, 0,00, 8862,49, 0,00, 0,00, 0,00, 0,00, 0,00, 0,00, -0,04, 0,05, 1,01
65, 0,00, 8862,20, 0,00, 0,00, 0,00, 0,00, 0,00, 0,00, -0,04, 0,05, 1,01
66, 0,00, 8847,38, 0,00, 0,00, 0,00, 0,00, 0,00, 0,00, -0,04, 0,05, 1,01
67, 0,00, 8823,31, 0,00, 0,00, 0,00, 0,00, 0,00, 0,00, -0,05, 0,05, 1,01
68, 0,00, 8836,29, 0,00, 0,00, 0,00, 0,00, 0,00, 0,00, -0,05, 0,05, 1,01
69, 0,00, 8868,19, 0,00, 0,00, 0,00, 0,00, 0,00, 0,00, -0,05, 0,05, 1,01
70, 0,00, 8864,30, 0,00, 0,00, 0,00, 0,00, 0,00, 0,00, -0,05, 0,05, 1,01
71, 0,00, 8842,82, 0,00, 0,00, 0,00, 0,00, 0,00, 0,00, -0,05, 0,05, 1,01
72, 0,00, 8810,86, 0,00, 0,00, 0,00, 0,00, 0,00, 0,00, -0,05, 0,04, 1,02
73, 0,00, 8826,28, 0,00, 0,00, 0,00, 0,00, 0,00, 0,00, -0,05, 0,04, 1,02
74, 0,00, 8871,72, 0,00, 0,00, 0,00, 0,00, 0,00, 0,00, -0,05, 0,04, 1,02
75, 0,00, 8867,63, 0,00, 0,00, 0,00, 0,00, 0,00, 0,00, -0,05, 0,04, 1,02
76, 0,00, 8847,29, 0,00, 0,00, 0,00, 0,00, 0,00, 0,00, -0,05, 0,04, 1,02
77, 0,00, 8820,47, 0,00, 0,00, 0,00, 0,00, 0,00, 0,00, -0,05, 0,04, 1,01
78, 0,00, 8826,46, 0,00, 0,00, 0,00, 0,00, 0,00, 0,00, -0,05, 0,04, 1,01
79, 0,00, 8860,63, 0,00, 0,00, 0,00, 0,00, 0,00, 0,00, -0,05, 0,04, 1,01
80, 0,00, 8861,97, 0,00, 0,00, 0,00, 0,00, 0,00, 0,00, -0,05, 0,04, 1,01
81, 0,00, 8847,58, 0,00, 0,00, 0,00, 0,00, 0,00, 0,00, -0,05, 0,04, 1,01
82, 0,00, 8813,05, 0,00, 0,00, 0,00, 0,00, 0,00, 0,00, -0,05, 0,04, 1,02
83, 0,00, 8815,55, 0,00, 0,00, 0,00, 0,00, 0,00, 0,00, -0,05, 0,04, 1,02
84, 0,00, 8861,17, 0,00, 0,00, 0,00, 0,00, 0,00, 0,00, -0,05, 0,04, 1,02
85, 0,00, 8878,54, 0,00, 0,00, 0,00, 0,00, 0,00, 0,00, -0,05, 0,04, 1,02
86, 0,00, 8864,10, 0,00, 0,00, 0,00, 0,00, 0,00, 0,00, -0,05, 0,04, 1,02
87, 0,00, 8832,18, 0,00, 0,00, 0,00, 0,00, 0,00, 0,00, -0,05, 0,05, 1,02
88, 0,00, 8838,48, 0,00, 0,00, 0,00, 0,00, 0,00, 0,00, -0,05, 0,05, 1,02
89, 0,00, 8872,70, 0,00, 0,00, 0,00, 0,00, 0,00, 0,00, -0,05, 0,05, 1,02
90, 0,00, 8869,82, 0,00, 0,00, 0,00, 0,00, 0,00, 0,00, -0,05, 0,05, 1,02
91, 0,00, 8852,18, 0,00, 0,00, 0,00, 0,00, 0,00, 0,00, -0,05, 0,05, 1,02
92, 0,00, 8817,90, 0,00, 0,00, 0,00, 0,00, 0,00, 0,00, -0,05, 0,05, 1,01
